,RAW_TP9,RAW_AF7,RAW_AF8,RAW_TP10,CLEAN_TP9,CLEAN_AF7,CLEAN_AF8,CLEAN_TP10
47:46.7,18.82456335,-9.75016379,-2.016037018,8.958427172,-1.791407776,-1.079698613,0.738366221,0.007459085
47:46.7,16.40698093,-6.526720566,-0.807245809,29.50787772,-1.605903994,-0.826690051,0.575743875,-0.001799349
47:46.7,20.43628496,-4.512068552,-0.001385003,24.67271289,-1.408846095,-0.556763035,0.40228487,-0.011704147
47:46.7,18.82456335,-2.90034694,-3.62775863,12.5848008,-1.284958568,-0.335822281,0.261965889,-0.021010652
47:46.7,9.154233678,-10.15309419,-5.642410644,30.31373853,-1.247430586,-0.176345679,0.162986527,-0.029391786
47:46.7,16.80991133,-7.735511775,4.027919026,22.25513047,-1.24374351,-0.029208911,0.073039351,-0.038116185
47:46.7,-4.142469618,-0.885694925,6.042571041,-20.05256184,-1.299029897,0.086105831,0.005128236,-0.046818704
47:46.7,-24.28898976,-4.512068552,-0.404315406,-9.17344096,-1.375536707,0.191563352,-0.05582588,-0.055609104
47:46.7,-2.530748007,-5.317929358,2.013267011,-5.949997736,-1.469574751,0.291530137,-0.112651227,-0.064631534
47:46.7,13.18353771,-4.512068552,4.833779832,-7.158788945,-1.622535239,0.358092956,-0.146477469,-0.073535378
47:46.7,34.53884906,-7.735511775,6.848431847,23.46392168,-1.827132047,0.396139124,-0.160610337,-0.082380776
47:46.7,21.24214577,-12.97360701,4.430849429,35.95476417,-2.028072507,0.441722724,-0.179504901,-0.091561943
47:46.8,-5.351260827,-13.37653742,1.207406206,30.71666893,-2.226960021,0.493706879,-0.202396253,-0.101061956
47:46.8,1.901486426,-11.7648158,4.430849429,18.62875684,-2.446453336,0.537708918,-0.219502088,-0.110742837
47:46.8,-5.351260827,-13.37653742,1.207406206,30.71666893,-2.673941449,0.581946488,-0.236396718,-0.120694167
47:46.8,-5.351260827,-13.37653742,1.207406206,30.71666893,-2.954851331,0.596358696,-0.232720125,-0.130565639
47:46.8,-5.351260827,-13.37653742,1.207406206,30.71666893,-3.293101247,0.578448101,-0.20677441,-0.140332771
47:46.8,-5.351260827,-13.37653742,1.207406206,30.71666893,-3.656561237,0.549402663,-0.172914966,-0.150238901
47:46.8,6.736651261,-11.7648158,6.042571041,6.137914352,-4.056331686,0.501917772,-0.126191687,-0.16020089
47:46.8,-5.351260827,-13.37653742,1.207406206,30.71666893,-4.435133889,0.477511617,-0.094482036,-0.170877667
47:46.8,5.930790455,-10.15309419,8.057223055,-13.20274499,-4.784563201,0.482124994,-0.081784237,-0.182356827
47:46.8,-1.321956798,-6.929650969,2.819127817,1.302749516,-5.140268793,0.490532143,-0.071122779,-0.194265187
47:46.8,3.110277634,-6.929650969,-4.433619436,13.3906616,-5.485557097,0.514844386,-0.070629152,-0.206795454
47:46.8,-3.739539216,-6.123790163,2.013267011,8.152566366,-5.847083312,0.535404214,-0.067124905,-0.219620759
47:46.8,-19.05089453,-7.332581372,2.416197414,6.137914352,-6.227691575,0.550287251,-0.059309508,-0.232716629
47:46.8,-4.142469618,-4.109138149,6.445501444,12.1818704,-6.599324964,0.580058369,-0.060977322,-0.246419526
47:46.8,2.304416828,-3.303277343,9.266014264,12.1818704,-6.967432795,0.620775369,-0.069480876,-0.260667225
47:46.8,5.930790455,-5.72085976,4.430849429,4.123262337,-7.386520495,0.634038227,-0.058968546,-0.274899288
47:46.8,2.707347231,-4.914998955,4.833779832,1.302749516,-7.857560569,0.61933077,-0.029082186,-0.289115871
47:46.8,-0.113165589,-7.735511775,2.819127817,11.37600959,-8.357882278,0.59263434,0.009419854,-0.303550645
47:46.8,7.139581664,-8.944302984,2.013267011,18.22582644,-8.901259016,0.544337943,0.063013714,-0.318067554
47:46.8,12.3776769,-9.75016379,-0.404315406,12.1818704,-9.448717158,0.502249531,0.113000628,-0.333088391
47:46.8,-9.380564857,-12.57067661,-3.224828227,-3.532415319,-9.997780768,0.468212737,0.158145686,-0.348644579
47:46.8,-11.79814727,-14.58532863,-2.418967421,5.332053546,-10.57936844,0.420419587,0.213128835,-0.364416688
47:46.8,-5.351260827,-12.57067661,-0.404315406,12.5848008,-11.18494287,0.365041409,0.273805292,-0.380501913
47:46.8,-12.60400808,-7.735511775,2.013267011,-16.02325781,-11.65079306,0.325476493,0.318629376,-0.393058241
47:46.8,-11.79814727,-12.16774621,-0.807245809,-22.47014426,-11.96376495,0.301615509,0.347083826,-0.401657412
47:46.8,-15.8274513,-14.98825903,-5.239480241,-1.920693707,-12.19452197,0.286840839,0.366343843,-0.40816703
47:46.8,-6.962982439,-12.97360701,-2.821897824,5.734983949,-12.29648321,0.287261577,0.370613673,-0.41146096
47:46.8,-8.574704051,-11.3618854,3.22205822,6.943775157,-12.37107722,0.284148066,0.375825149,-0.413665158
47:46.8,10.36302489,-10.5560246,4.027919026,12.5848008,-12.42141021,0.277193823,0.382303189,-0.414860784
47:46.9,34.53884906,-10.5560246,4.833779832,20.64340886,-12.354429,0.281168771,0.37690403,-0.412952405
47:46.9,-21.46847694,-11.3618854,8.057223055,-0.308972095,-12.18865892,0.292441341,0.362666103,-0.408315652
47:46.9,-41.21206669,-14.98825903,4.430849429,-4.741206528,-12.03060718,0.302062235,0.34977869,-0.403827069
47:46.9,-8.977634454,-9.75016379,4.833779832,-0.308972095,-11.87582189,0.311171431,0.337348533,-0.399412449
47:46.9,-41.21206669,-14.98825903,4.430849429,-4.741206528,-11.6831584,0.321827816,0.322292673,-0.393876523
47:46.9,-41.21206669,-14.98825903,4.430849429,-4.741206528,-11.4765951,0.332214044,0.306784581,-0.387878765
47:46.9,-41.21206669,-14.98825903,4.430849429,-4.741206528,-11.16550752,0.351944246,0.280934405,-0.379091749
47:46.9,-41.21206669,-14.98825903,4.430849429,-4.741206528,-10.74248766,0.381601966,0.244057186,-0.367313063
47:46.9,0.692695217,-6.526720566,10.07187507,-1.517763304,-10.2706235,0.415123611,0.202653742,-0.354200753
47:46.9,-41.21206669,-14.98825903,4.430849429,-4.741206528,-9.727845258,0.45483329,0.154326105,-0.339186987
47:46.9,2.707347231,-5.72085976,8.863083861,14.59945281,-9.237257492,0.476870334,0.11909938,-0.324784242
47:46.9,-9.380564857,-9.347233387,6.445501444,2.511540725,-8.816314676,0.478428822,0.099460642,-0.311383439
47:46.9,-13.40986889,-12.16774621,5.236710235,7.34670556,-8.389788399,0.472568772,0.084100852,-0.297357804
47:46.9,4.721999246,-5.72085976,4.833779832,9.361357575,-7.993434752,0.452442535,0.078785862,-0.283442069
47:46.9,-6.560052036,-6.526720566,-0.807245809,-0.711902498,-7.568880139,0.43055899,0.073291209,-0.268516664
47:46.9,-0.919026395,-8.541372581,-2.418967421,2.108610322,-7.110192584,0.407837591,0.066792487,-0.252446683
47:46.9,-9.380564857,-5.317929358,6.445501444,-10.38223217,-6.678122185,0.371933747,0.069519418,-0.23643775
47:46.9,-25.90071138,-6.123790163,10.47480547,-2.32362411,-6.260796084,0.325297898,0.079449637,-0.220256516
47:46.9,-0.516095992,-6.123790163,9.266014264,23.86685208,-5.743707189,0.287245768,0.079713067,-0.201392977
47:46.9,7.945442469,-6.526720566,4.833779832,28.70201692,-5.125079466,0.257739852,0.070253749,-0.179787944
47:46.9,-4.142469618,-3.303277343,3.22205822,0.899819113,-4.452318006,0.228984392,0.057933234,-0.156492608
47:46.9,3.91613844,-6.123790163,3.22205822,-15.217397,-3.696597002,0.205690899,0.038596818,-0.13086603
47:46.9,6.333720858,-6.929650969,3.22205822,-3.935345722,-2.940405083,0.17319308,0.024856014,-0.104671197
47:46.9,-12.20107768,-1.691555731,9.266014264,6.540844754,-2.189019208,0.130478172,0.017563086,-0.078016409
47:46.9,-10.99228647,-5.72085976,11.68359668,5.734983949,-1.377342593,0.088671439,0.007039381,-0.049483417
47:46.9,-17.43917291,-5.72085976,9.668944667,-1.920693707,-0.523515845,0.044439791,-0.003875885,-0.019453457
47:46.9,-13.81279929,-2.094486134,10.87773588,-8.367580154,0.154420348,0.009143845,-0.012435099,0.004400839
47:46.9,-15.4245209,2.337748298,15.30997031,-18.44084023,0.64170878,-0.014871335,-0.019414085,0.021465453
47:46.9,-32.34759782,-0.079834119,17.32462232,-32.54340433,1.027732882,-0.035343136,-0.02405963,0.035070814
47:47.0,-11.79814727,-1.288625328,18.53341353,-30.12582191,1.251230285,-0.048694506,-0.025834726,0.043038019
47:47.0,-47.25602273,3.143609104,21.75685675,-52.28699407,1.453176719,-0.058836129,-0.028611668,0.050121449
47:47.0,-102.4574879,2.337748298,23.36857837,-68.40421019,1.637557338,-0.066194712,-0.032307,0.056474506
47:47.0,-95.60767108,1.128957089,28.6066736,-48.66062045,1.678424425,-0.065512209,-0.034537759,0.057743594
47:47.0,-102.8604183,-1.691555731,37.47114247,-68.40421019,1.601845668,-0.057424091,-0.036073453,0.054802576
47:47.0,-108.9043744,1.128957089,37.87407287,-86.93900872,1.541187077,-0.054183249,-0.035358092,0.052663233
47:47.0,-102.8604183,-1.691555731,37.47114247,-68.40421019,1.489868804,-0.055956831,-0.031997572,0.051124674
47:47.0,-102.8604183,-1.691555731,37.47114247,-68.40421019,1.398337455,-0.057083833,-0.02724634,0.048258119
47:47.0,-102.8604183,-1.691555731,37.47114247,-68.40421019,1.296379402,-0.06054594,-0.020607323,0.045197641
47:47.0,-102.8604183,-1.691555731,37.47114247,-68.40421019,1.067854053,-0.057615673,-0.01225001,0.037695538
47:47.0,-102.8604183,-1.691555731,37.47114247,-68.40421019,0.703580967,-0.047513698,-0.002242389,0.025410668
47:47.0,-119.3805649,-1.691555731,37.87407287,-96.20640799,0.283618069,-0.0369552,0.009959008,0.011313074
47:47.0,-141.9446674,-7.332581372,41.5004465,-115.5470673,-0.220264673,-0.023873949,0.024346628,-0.00562641
47:47.0,-149.6003451,-0.079834119,44.32095932,-148.18443,-0.635194855,-0.011641378,0.035303072,-0.019663275
47:47.0,-160.0765356,3.143609104,45.52975053,-175.180767,-0.937426187,-0.001275418,0.042395267,-0.029975093
47:47.0,-154.4355099,-1.691555731,47.54440254,-162.2869941,-1.230420765,0.010358335,0.048303784,-0.040066993
47:47.0,-143.1534586,-6.526720566,50.36491536,-142.9463347,-1.464051975,0.022150516,0.051480194,-0.04826536
47:47.0,-141.9446674,-6.929650969,47.54440254,-132.4701443,-1.721891,0.034602204,0.055328874,-0.05727941
47:47.0,-155.6443011,-2.90034694,43.51509851,-148.18443,-2.011904231,0.047965381,0.060049733,-0.067379669
47:47.0,-151.6149971,-4.512068552,41.9033769,-137.3053091,-2.247968183,0.060990881,0.062581567,-0.075730144
47:47.0,-157.2560227,-5.317929358,42.3063073,-113.9353457,-2.446917097,0.073783479,0.063607799,-0.082876799
47:47.0,-172.567378,-3.303277343,37.47114247,-118.3675802,-2.765484982,0.091588826,0.066885709,-0.094159421
47:47.0,-115.3512608,0.726026686,35.45649045,-119.5763714,-3.205594366,0.114667527,0.072341627,-0.109655302
47:47.0,-96.01060149,1.934817895,30.21839522,-119.9793018,-3.702577566,0.140558914,0.078606142,-0.127143464
47:47.0,-114.9483304,-1.691555731,20.95099595,-101.4445032,-4.295649891,0.1706358,0.086582521,-0.147963563
47:47.0,-81.50510698,-2.90034694,16.11583111,-68.40421019,-4.870788914,0.201563425,0.093243627,-0.168259889
47:47.0,-68.61133409,-3.303277343,15.30997031,-72.03058382,-5.420557847,0.233102689,0.098405204,-0.187779666
47:47.0,-44.03257951,-4.914998955,15.30997031,-69.6130014,-6.03424155,0.26808067,0.104305955,-0.209555064
47:47.0,-35.97397145,-8.541372581,11.68359668,-41.00494279,-6.686582571,0.305778961,0.110262951,-0.232733212
47:47.1,-47.65895313,-6.526720566,7.251362249,-30.12582191,-7.188578102,0.334223271,0.115192185,-0.250535483
47:47.1,-39.19741467,-7.735511775,4.833779832,0.093958308,-7.531091978,0.352553998,0.119212587,-0.262617333
47:47.1,-18.64796412,-10.15309419,3.22205822,16.21117443,-7.784813572,0.365901111,0.122332082,-0.2715532
47:47.1,11.16888569,-8.541372581,2.013267011,3.317401531,-7.897586758,0.370907733,0.124283581,-0.275469338
47:47.1,-22.27433775,-11.7648158,-1.210176212,6.137914352,-7.999493677,0.375157048,0.126214785,-0.278991615
47:47.1,-19.05089453,-12.57067661,-4.030689033,6.540844754,-8.093602266,0.378915691,0.128099192,-0.282234408
47:47.1,14.39232892,-11.7648158,-5.239480241,2.108610322,-8.067864525,0.375371598,0.129119187,-0.281196322
47:47.1,1.498556023,-12.57067661,-7.254132256,4.929123143,-7.946616412,0.365950115,0.129485411,-0.276743174
47:47.1,14.39232892,-11.7648158,-5.239480241,2.108610322,-7.83354052,0.35820464,0.129191733,-0.272652733
47:47.1,14.39232892,-11.7648158,-5.239480241,2.108610322,-7.721873933,0.351825454,0.128126905,-0.268689583
47:47.1,14.39232892,-11.7648158,-5.239480241,2.108610322,-7.575743078,0.344000574,0.126414207,-0.263534703
47:47.1,14.39232892,-11.7648158,-5.239480241,2.108610322,-7.417825156,0.336449987,0.124010847,-0.258018441
47:47.1,14.39232892,-11.7648158,-5.239480241,2.108610322,-7.153612265,0.32273795,0.12064827,-0.248724316
47:47.1,16.40698093,-9.347233387,-3.62775863,4.123262337,-6.775928044,0.302379319,0.116303917,-0.235393113
47:47.1,28.09196262,-13.77946782,-5.239480241,2.511540725,-6.348500298,0.279890509,0.111051046,-0.220339228
47:47.1,28.89782342,-18.61463265,-6.851201853,33.53718175,-5.848307147,0.253732085,0.104806972,-0.202732113
47:47.1,45.82090035,-14.18239822,-2.821897824,66.57747479,-5.43757775,0.232713348,0.09939838,-0.188301887
47:47.1,52.26778679,-11.7648158,-4.433619436,59.72765794,-5.137440999,0.218108663,0.094985661,-0.177802479
47:47.1,30.10661463,-12.16774621,-4.030689033,50.86318908,-4.853429171,0.204588842,0.090626819,-0.167885196
47:47.1,11.16888569,-13.77946782,-8.059993062,43.20751142,-4.632353533,0.194734427,0.086825381,-0.160205788
47:47.1,43.40331793,-10.5560246,-11.28343629,28.29908651,-4.393419974,0.184417546,0.08251334,-0.151926101
47:47.1,53.0736476,-9.75016379,-8.059993062,36.35769457,-4.129461738,0.173247606,0.077610868,-0.142792914
47:47.1,28.09196262,-8.138442178,-5.642410644,50.05732827,-3.922298092,0.165586052,0.073088959,-0.135691278
47:47.1,20.03335456,-8.138442178,-4.433619436,28.70201692,-3.755734931,0.160618912,0.068725364,-0.130053129
47:47.1,30.10661463,-14.58532863,-8.462923465,23.86685208,-3.487745085,0.150240207,0.063161095,-0.12083825
47:47.1,48.23848276,-15.79411983,-9.268784271,73.02436124,-3.117113351,0.134357786,0.056398434,-0.108002144
47:47.1,40.1798747,-14.18239822,-7.254132256,80.27710849,-2.701908352,0.116371725,0.048940595,-0.093610697
47:47.1,20.43628496,-11.7648158,-7.254132256,49.65439787,-2.206797118,0.094266365,0.040448936,-0.076410078
47:47.1,28.49489302,-12.97360701,-10.07464508,49.25146747,-1.736331007,0.073939667,0.031966048,-0.060106419
47:47.1,35.74764027,-13.37653742,-10.88050588,37.56648578,-1.297366109,0.055799404,0.023547484,-0.044944017
47:47.1,44.61210914,-8.944302984,-8.865853868,46.43095465,-0.808676402,0.035250888,0.014390916,-0.02804282
47:47.1,40.98573551,-6.526720566,-10.47757548,61.74230996,-0.293537378,0.013616793,0.004722555,-0.010228477
47:47.1,38.56815309,-8.138442178,-10.88050588,32.73132095,0.101118246,-0.002991804,-0.002663529,0.003421421
47:47.1,56.29709082,-13.37653742,-11.28343629,41.19285941,0.369379329,-0.01446265,-0.007573411,0.012710631
47:47.1,47.43262196,-11.7648158,-6.44827145,59.32472754,0.563508359,-0.022712948,-0.011157394,0.01942979
47:47.1,25.2714498,-10.5560246,-6.045341047,31.11959933,0.643193578,-0.02609958,-0.012628479,0.022187845
47:47.1,28.09196262,-14.98825903,-10.07464508,24.26978248,0.712262901,-0.029221059,-0.013790069,0.024589644
47:47.1,49.04434357,-14.18239822,-6.44827145,41.59578981,0.772812385,-0.032146655,-0.01469295,0.026706544
47:47.2,38.56815309,-15.39118943,-7.657062659,41.59578981,0.736584957,-0.031101837,-0.013722187,0.025482384
47:47.2,,,,,0.622985468,-0.026952976,-0.011210595,0.021591306
47:47.2,49.04434357,-14.18239822,-6.44827145,41.59578981,0.508273489,-0.022395226,-0.00889912,0.017639991
47:47.2,49.04434357,-14.18239822,-6.44827145,41.59578981,0.386685287,-0.017143664,-0.006705741,0.013426544
47:47.2,49.04434357,-14.18239822,-6.44827145,41.59578981,0.232701401,-0.010409346,-0.003978942,0.008085454
47:47.2,49.04434357,-14.18239822,-6.44827145,41.59578981,0.062709218,-0.002745042,-0.001108937,0.002175285
47:47.2,49.04434357,-14.18239822,-6.44827145,41.59578981,-0.194729038,0.008575738,0.003412036,-0.006757951
47:47.2,23.65972818,-17.00291104,-10.47757548,35.14890336,-0.545049646,0.023752962,0.009703299,-0.018900548
47:47.2,30.50954503,-14.18239822,-7.254132256,42.40165062,-0.940838615,0.041046043,0.016722024,-0.032627915
47:47.2,34.94177947,-13.77946782,-6.851201853,49.25146747,-1.399617336,0.061129862,0.024834256,-0.048542306
47:47.2,24.06265859,-15.39118943,-4.836549838,35.95476417,-1.790087552,0.078194422,0.031756299,-0.062085432
47:47.2,26.0773106,-12.97360701,-5.239480241,39.5811378,-2.095666847,0.091547152,0.037174587,-0.072684076
47:47.2,53.476578,-10.15309419,-8.059993062,48.44560666,-2.392059817,0.104466097,0.042449747,-0.082962158
47:47.2,59.52053405,-11.7648158,-8.462923465,48.84853706,-2.641547263,0.115293648,0.046918715,-0.091610868
47:47.2,32.52419705,-7.332581372,-5.239480241,49.65439787,-2.910559119,0.127050626,0.051687327,-0.100941343
47:47.2,32.92712745,-9.75016379,-4.433619436,22.25513047,-3.204910785,0.139990985,0.056858796,-0.111155272
47:47.2,48.64141317,-17.00291104,-6.851201853,31.11959933,-3.458078212,0.151143716,0.06129271,-0.119941496
47:47.2,31.31540584,-15.39118943,-4.030689033,59.32472754,-3.683444845,0.161119648,0.065210497,-0.127765768
47:47.2,14.39232892,-16.19705024,-2.821897824,29.50787772,-3.994410667,0.17478631,0.070676357,-0.138555958
47:47.2,28.49489302,-15.39118943,-2.418967421,21.44926966,-4.391872978,0.192170714,0.077713644,-0.152342457
47:47.2,22.45093698,-16.59998064,-5.239480241,31.92546014,-4.829833971,0.211324518,0.085469173,-0.167533588
47:47.2,14.79525932,-20.22635427,-10.07464508,32.73132095,-5.336521816,0.233457166,0.094458124,-0.185106966
47:47.2,18.42163295,-17.40584145,-9.671714674,39.17820739,-5.828216706,0.25494509,0.103174877,-0.202160959
47:47.2,17.61577214,-13.37653742,-6.045341047,8.555496769,-6.299528752,0.27555937,0.111519836,-0.21850902
47:47.2,30.10661463,-17.00291104,-5.239480241,1.302749516,-6.815482195,0.2981041,0.120668679,-0.236404198
47:47.2,28.09196262,-21.03221507,-10.07464508,25.8815041,-7.357491427,0.321775719,0.130286635,-0.255202388
47:47.2,9.557164081,-18.61463265,-7.254132256,34.34304256,-7.775596857,0.340045892,0.137699872,-0.269703891
47:47.3,11.9747465,-15.39118943,-5.642410644,10.57014878,-8.061769608,0.352561029,0.142767711,-0.279630068
47:47.3,12.3776769,-16.19705024,-9.268784271,12.5848008,-8.273033257,0.361807238,0.146504676,-0.286958375
47:47.3,17.21284174,-14.58532863,-4.030689033,32.73132095,-8.367724282,0.365969056,0.148168921,-0.290244069
47:47.3,20.43628496,-14.58532863,-4.836549838,12.5848008,-8.447546187,0.369468758,0.149577079,-0.293013302
47:47.3,10.36302489,-18.21170225,-9.268784271,-1.517763304,-8.514844594,0.372407789,0.15077138,-0.295347364
47:47.3,11.9747465,-16.19705024,-9.268784271,22.65806087,-8.481086933,0.370932276,0.150173074,-0.294176496
47:47.3,10.36302489,-18.21170225,-9.268784271,-1.517763304,-8.365133453,0.36586137,0.148119612,-0.290154541
47:47.3,10.36302489,-18.21170225,-9.268784271,-1.517763304,-8.251410633,0.360887827,0.146105769,-0.286209948
47:47.3,10.36302489,-18.21170225,-9.268784271,-1.517763304,-8.134618906,0.355781684,0.144036595,-0.282159004
47:47.3,10.36302489,-18.21170225,-9.268784271,-1.517763304,-7.984808621,0.34922875,0.141384401,-0.276962612
47:47.3,10.36302489,-18.21170225,-9.268784271,-1.517763304,-7.820443575,0.342036966,0.138475879,-0.271261233
47:47.3,27.68903221,-13.37653742,-6.045341047,46.02802424,-7.565186784,0.330871927,0.133956718,-0.262407289
47:47.3,45.01503954,-11.3618854,-4.030689033,24.67271289,-7.213059573,0.315471694,0.127721331,-0.250193375
47:47.3,12.3776769,-13.37653742,-6.851201853,6.137914352,-6.815597951,0.298088452,0.120683366,-0.236406968
47:47.3,-9.380564857,-20.62928467,-4.433619436,30.31373853,-6.3541156,0.27790571,0.11251147,-0.220399959
47:47.3,21.24214577,-21.03221507,-4.433619436,31.52252974,-5.956317278,0.260507765,0.105467529,-0.206601875
47:47.3,20.03335456,-16.59998064,-10.07464508,16.21117443,-5.638883367,0.246623965,0.099847017,-0.195591283
47:47.3,-0.113165589,-15.39118943,-8.865853868,-11.18809297,-5.326938087,0.232980553,0.094323486,-0.184771091
47:47.3,14.39232892,-17.00291104,-8.462923465,1.302749516,-5.057279414,0.221186678,0.089548672,-0.175417663
47:47.3,28.09196262,-18.61463265,-10.88050588,27.0902953,-4.766419122,0.20846549,0.084398464,-0.165328831
47:47.3,11.16888569,-17.80877185,-6.851201853,10.57014878,-4.448556385,0.194563404,0.078770072,-0.154303393
47:47.3,8.348372872,-17.40584145,-5.239480241,15.00238322,-4.167924645,0.182289622,0.073800951,-0.144569353
47:47.3,16.00405053,-15.39118943,-9.268784271,-7.158788945,-3.911696457,0.171083131,0.069263959,-0.135681776
47:47.3,8.348372872,-16.19705024,-7.657062659,0.899819113,-3.567155184,0.156014171,0.063163206,-0.123730959
47:47.3,-0.113165589,-17.40584145,-4.433619436,28.29908651,-3.133148586,0.13703233,0.0554783,-0.108676931
47:47.3,12.78060731,-15.79411983,-5.642410644,29.50787772,-2.655670108,0.116149187,0.047023644,-0.09211503
47:47.3,45.41796994,-11.7648158,-5.642410644,10.97307919,-2.106563146,0.09213328,0.03730067,-0.073068612
47:47.3,24.86851939,-9.75016379,-7.657062659,-6.755858542,-1.568434826,0.068597538,0.027772094,-0.054403
47:47.3,4.319068843,-10.5560246,-9.268784271,-2.32362411,-1.046588367,0.045773904,0.018531819,-0.036302144
47:47.3,19.63042415,-12.57067661,-7.254132256,3.317401531,-0.476552946,0.020842663,0.008438268,-0.016529797
47:47.3,2.304416828,-12.97360701,-4.433619436,4.123262337,0.123387374,-0.005396507,-0.002184806,0.004279836
47:47.3,-5.351260827,-10.15309419,-0.001385003,-10.78516257,0.618558732,-0.027053471,-0.010952748,0.021455435
47:47.3,-1.724887201,-12.16774621,2.013267011,-11.99395378,1.002526237,-0.043846789,-0.017751616,0.034773798
47:47.3,7.139581664,-12.57067661,-0.404315406,12.9877312,1.325451187,-0.057970332,-0.023469611,0.045974828
47:47.3,21.24214577,-10.5560246,0.4015454,34.74597296,1.550177934,-0.067799049,-0.027448822,0.053769739
47:47.4,20.03335456,-8.944302984,2.416197414,33.53718175,1.76962602,-0.077396896,-0.031334563,0.061381553
47:47.4,46.22383075,-10.5560246,2.013267011,19.43461765,1.985954749,-0.086858315,-0.035165071,0.068885168
47:47.4,20.03335456,-8.944302984,2.416197414,33.53718175,2.119211161,-0.092686457,-0.037524627,0.073507323
47:47.4,20.03335456,-8.944302984,2.416197414,33.53718175,2.186773747,-0.095641395,-0.03872095,0.075850811
47:47.4,20.03335456,-8.944302984,2.416197414,33.53718175,2.262369441,-0.098947671,-0.040059514,0.078472936
47:47.4,20.03335456,-8.944302984,2.416197414,33.53718175,2.341152291,-0.102393341,-0.041454513,0.081205611
47:47.4,20.03335456,-8.944302984,2.416197414,33.53718175,2.397654002,-0.104864517,-0.042454982,0.083165439
47:47.4,15.60112013,-12.16774621,1.610336608,16.21117443,2.447986452,-0.107065872,-0.043346213,0.084911279
47:47.4,-19.45382493,-7.735511775,2.416197414,3.317401531,2.424846821,-0.106053831,-0.042936482,0.084108654
47:47.4,3.513208037,-8.138442178,3.22205822,2.108610322,2.323123897,-0.101604846,-0.041135286,0.080580275
47:47.4,7.542512067,-6.526720566,7.654292652,16.61410483,2.188163554,-0.09570218,-0.038745559,0.075899018
47:47.4,13.58646811,-4.109138149,6.445501444,8.152566366,2.003565078,-0.087628525,-0.035476895,0.069496003
47:47.4,11.16888569,-8.541372581,-0.001385003,8.958427172,1.885937379,-0.082483925,-0.033394075,0.065415949
47:47.4,0.289764814,-12.97360701,-2.418967421,17.01703523,1.850424397,-0.080930718,-0.032765251,0.064184139
47:47.4,14.39232892,-12.57067661,-1.613106615,29.10494732,1.829235457,-0.080003993,-0.032390061,0.063449176
47:47.4,12.78060731,-8.944302984,2.416197414,18.22582644,1.856011672,-0.081175085,-0.032864184,0.06437794
47:47.4,9.154233678,-11.3618854,3.624988623,-7.158788945,1.872579374,-0.081899695,-0.033157547,0.06495261
47:47.5,23.25679778,-13.37653742,2.013267011,6.137914352,1.873802675,-0.081953198,-0.033179207,0.064995042
47:47.5,18.42163295,-11.3618854,4.027919026,10.97307919,1.918539386,-0.083909816,-0.033971355,0.066546787
47:47.5,-4.142469618,-8.944302984,6.848431847,16.61410483,1.995134747,-0.087259814,-0.03532762,0.069203587
47:47.5,-20.25968574,-4.512068552,7.251362249,4.123262337,2.001680452,-0.087546099,-0.035443524,0.069430633
47:47.5,-8.574704051,-6.929650969,5.236710235,-12.39688418,1.937327056,-0.084731519,-0.034304026,0.06719846
47:47.5,8.751303275,-7.735511775,4.833779832,-7.158788945,1.843722694,-0.080637611,-0.032646585,0.063951683
47:47.5,-5.75419123,-8.541372581,2.416197414,9.764287978,1.695524412,-0.074155966,-0.030022455,0.058811252
47:47.5,-9.783495259,-9.347233387,-0.001385003,23.86685208,1.567803437,-0.068569923,-0.027760914,0.0543811
47:47.5,1.901486426,-5.72085976,7.251362249,10.57014878,1.465486074,-0.06409494,-0.025949193,0.050832102
47:47.5,4.721999246,-6.929650969,7.251362249,0.899819113,1.330278223,-0.058181449,-0.023555083,0.046142259
47:47.5,9.557164081,-9.347233387,0.4015454,9.764287978,1.178898597,-0.051560664,-0.020874621,0.04089148
47:47.5,-0.113165589,-8.541372581,2.416197414,9.764287978,1.011843317,-0.044254284,-0.017916593,0.035096971
47:47.5,-17.03624251,-6.123790163,6.445501444,12.9877312,0.822560074,-0.035975735,-0.014564976,0.02853146
47:47.5,-25.09485057,-7.332581372,7.654292652,-3.532415319,0.622614523,-0.027230856,-0.011024563,0.021596115
47:47.5,-8.977634454,-8.541372581,3.624988623,-5.949997736,0.410368477,-0.017947999,-0.007266347,0.014234112
47:47.5,-9.380564857,-8.138442178,4.430849429,-1.517763304,0.1713628,-0.007494775,-0.003034301,0.00594392
47:47.5,-8.977634454,-8.541372581,3.624988623,-5.949997736,-0.093879638,0.004105948,0.001662316,-0.003256325
47:47.5,-8.977634454,-8.541372581,3.624988623,-5.949997736,-0.380068902,0.016622808,0.006729836,-0.013183135
47:47.5,-8.977634454,-8.541372581,3.624988623,-5.949997736,-0.690496831,0.030199777,0.012226548,-0.023950692
47:47.5,-8.977634454,-8.541372581,3.624988623,-5.949997736,-1.004656286,0.04393995,0.017789333,-0.034847681
47:47.5,-8.977634454,-8.541372581,3.624988623,-5.949997736,-1.320804756,0.057767114,0.023387337,-0.045813661
47:47.5,-15.4245209,-8.541372581,5.236710235,-21.66428345,-1.651440034,0.072227878,0.029241858,-0.057282133
47:47.5,11.5718161,-5.317929358,7.251362249,-9.17344096,-1.991249068,0.087089869,0.035258817,-0.069068808
47:47.5,-5.351260827,-5.317929358,9.266014264,-6.352928139,-2.35092286,0.10282067,0.041627519,-0.081544515
47:47.5,-18.24503372,-8.541372581,4.430849429,-4.741206528,-2.731960059,0.119485828,0.048374501,-0.094761237
47:47.5,-3.739539216,-5.72085976,2.819127817,26.6873649,-3.124735176,0.136664358,0.055329325,-0.108385102
47:47.5,-11.39521687,-8.541372581,2.416197414,23.46392168,-3.531869119,0.154470891,0.062538398,-0.12250702
47:47.5,-11.79814727,-8.138442178,3.22205822,-9.979301766,-3.97578329,0.173886055,0.070398735,-0.137904704
47:47.5,-14.21572969,-3.303277343,5.236710235,-31.73754352,-4.45764707,0.194960994,0.078931041,-0.154618714
47:47.5,-21.87140735,-8.541372581,2.416197414,-21.66428345,-4.968897453,0.217321195,0.087983693,-0.172352032
47:47.5,-15.0215905,-9.75016379,-1.613106615,2.511540725,-5.515735018,0.241237847,0.097666482,-0.191319734
47:47.5,4.319068843,-8.944302984,-1.613106615,17.01703523,-6.083364511,0.266063862,0.107717432,-0.211008629
47:47.5,1.901486426,-8.138442178,2.819127817,-1.517763304,-6.671449281,0.291784514,0.118130581,-0.231407038
47:47.5,-17.84210332,-10.5560246,3.624988623,-26.09651788,-7.292990412,0.318968424,0.129136138,-0.252965921
47:47.5,-2.127817604,-13.37653742,4.027919026,-19.24670103,-7.945265795,0.347496537,0.140685903,-0.275590857
47:47.5,4.319068843,-13.77946782,6.042571041,13.79359201,-8.617136944,0.376881695,0.152582648,-0.298895495
47:47.5,-11.79814727,-12.57067661,3.22205822,32.32839054,-9.309539226,0.40716481,0.164842935,-0.32291228
47:47.5,-10.18642566,-8.944302984,5.639640638,3.317401531,-10.02633769,0.438514923,0.177535203,-0.347775275
47:47.5,-8.977634454,-10.5560246,3.22205822,-30.52875231,-10.76521145,0.470830529,0.190618355,-0.373403977
47:47.5,-13.81279929,-11.7648158,-3.224828227,-22.47014426,-11.53667835,0.504571637,0.20427863,-0.400163211
47:47.5,-17.03624251,-12.97360701,-2.821897824,-1.114832901,-12.34162541,0.539777044,0.218531735,-0.428083743
47:47.6,-9.783495259,-19.42049346,-2.821897824,2.108610322,-13.17320791,0.576147387,0.23325647,-0.456928157
47:47.6,8.348372872,-17.80877185,0.4015454,1.705679919,-14.03407318,0.613798449,0.248499712,-0.486788278
47:47.6,5.930790455,-10.5560246,1.610336608,27.49322571,-14.66216752,0.641268973,0.259621306,-0.508574466
47:47.6,-10.18642566,-10.15309419,-2.016037018,15.00238322,-15.03014648,0.657363011,0.266137066,-0.521338248
47:47.6,-35.57104105,-14.18239822,-3.62775863,-16.02325781,-15.26271738,0.667534802,0.270255173,-0.529405242
47:47.6,-24.69192017,-14.58532863,1.610336608,-4.338276125,-15.28367511,0.668451416,0.270626269,-0.530132186
47:47.6,-35.57104105,-14.18239822,-3.62775863,-16.02325781,-15.24181198,0.666620477,0.269885003,-0.528680114
47:47.6,-35.57104105,-14.18239822,-3.62775863,-16.02325781,-15.14273302,0.66228713,0.268130623,-0.525243444
47:47.6,-35.57104105,-14.18239822,-3.62775863,-16.02325781,-14.84240772,0.649152012,0.262812798,-0.514826309
47:47.6,-35.57104105,-14.18239822,-3.62775863,-16.02325781,-14.36747339,0.628380141,0.254403191,-0.498352655
47:47.6,-35.57104105,-14.18239822,-3.62775863,-16.02325781,-13.90874104,0.608316885,0.24628047,-0.482440986
47:47.6,-8.574704051,-12.57067661,3.22205822,-15.217397,-13.46086661,0.588728514,0.238350009,-0.466905936
47:47.6,-8.977634454,-12.97360701,-1.613106615,-27.70823949,-12.94586009,0.566204034,0.229230848,-0.449042332
47:47.6,0.692695217,-11.3618854,-7.657062659,-13.60567539,-12.40743871,0.542655475,0.219697083,-0.430366555
47:47.6,-6.962982439,-10.15309419,-4.836549838,4.52619274,-11.68999687,0.511277222,0.206993423,-0.405481244
47:47.6,-6.560052036,-9.347233387,2.416197414,20.24047845,-10.78031085,0.471490921,0.190885718,-0.373927718
47:47.6,2.304416828,-9.347233387,3.624988623,1.705679919,-9.789006007,0.428134914,0.173332798,-0.339543147
47:47.6,-13.40986889,-11.7648158,4.430849429,-7.561719348,-8.678254232,0.37955474,0.153664845,-0.30101542
47:47.6,-13.81279929,-12.16774621,3.624988623,15.40531362,-7.623631879,0.333429459,0.134990768,-0.264434608
47:47.6,1.901486426,-10.15309419,2.416197414,14.59945281,-6.652084833,0.290937585,0.117787697,-0.23073536
47:47.6,13.98939851,-8.944302984,4.027919026,-5.547067333,-5.65148025,0.247174841,0.100070108,-0.196028217
47:47.6,13.98939851,-11.3618854,4.430849429,10.97307919,-4.673194664,0.204388249,0.082747718,-0.162095234
47:47.6,9.960094484,-10.15309419,3.624988623,13.79359201,-3.638195367,0.159121208,0.064421105,-0.126195071
47:47.6,-4.948330424,-8.944302984,3.624988623,-8.770510557,-2.537408987,0.110976883,0.044929608,-0.088013005
47:47.6,-15.0215905,-10.15309419,4.430849429,0.496888711,-1.455643292,0.063664453,0.025774908,-0.050490694
47:47.6,-5.351260827,-4.914998955,8.863083861,9.361357575,-0.37662887,0.016472354,0.006668924,-0.013063814
47:47.6,5.124929649,-5.317929358,7.654292652,-21.26135305,0.872206324,-0.038147078,-0.015444057,0.030253499
47:47.6,3.513208037,-10.958955,-0.001385003,-16.42618821,2.2945132,-0.10035352,-0.04062868,0.07958788
47:47.6,7.945442469,-11.3618854,0.804475803,8.555496769,3.817968949,-0.166983839,-0.067604335,0.132430728
47:47.7,17.61577214,-8.138442178,5.639640638,20.24047845,5.486406997,-0.239955148,-0.097147175,0.190302457
47:47.7,5.930790455,-7.332581372,4.027919026,7.34670556,7.177756378,-0.313928514,-0.127095703,0.248968893
47:47.7,5.527860052,-12.16774621,2.013267011,-14.4115362,8.88431616,-0.388567126,-0.157313559,0.30816292
47:47.7,-2.93367841,-10.958955,6.042571041,12.9877312,10.70364656,-0.468137908,-0.189528232,0.371268527
47:47.7,-9.380564857,-13.37653742,4.027919026,25.47857369,12.6091442,-0.551477326,-0.223268659,0.437362946
47:47.7,-5.75419123,-9.75016379,4.833779832,-0.711902498,14.12713983,-0.61786884,-0.250147632,0.490016404
47:47.7,9.557164081,-2.497416537,3.22205822,-26.90237869,15.22073957,-0.665698848,-0.269511876,0.527949193
47:47.7,16.80991133,-6.929650969,0.804475803,-32.94633473,16.09326428,-0.703859851,-0.28496157,0.558213735
47:47.7,9.557164081,-2.497416537,3.22205822,-26.90237869,16.61040076,-0.726477488,-0.294118446,0.57615122
47:47.7,9.557164081,-2.497416537,3.22205822,-26.90237869,17.06788677,-0.746486234,-0.302219098,0.592019659
47:47.7,9.557164081,-2.497416537,3.22205822,-26.90237869,17.47494206,-0.764289327,-0.309426779,0.606138848
47:47.7,9.557164081,-2.497416537,3.22205822,-26.90237869,17.56185549,-0.768090599,-0.310965745,0.609153543
47:47.7,9.557164081,-2.497416537,3.22205822,-26.90237869,17.38296926,-0.760266777,-0.307798228,0.602948664
47:47.7,-8.171773648,-11.7648158,3.624988623,-14.8144666,17.24378003,-0.754179154,-0.30533362,0.598120722
47:47.7,-8.574704051,-12.16774621,2.416197414,-12.79981459,17.1314328,-0.749265502,-0.3033443,0.594223827
47:47.7,0.692695217,-6.123790163,5.236710235,8.958427172,16.92895032,-0.740409667,-0.299758967,0.587200485
47:47.7,4.319068843,-4.914998955,8.460153458,21.04633926,16.70522381,-0.730624698,-0.295797467,0.579440269
47:47.7,26.0773106,-7.735511775,2.013267011,4.52619274,16.19987501,-0.70852261,-0.286849314,0.561911653
47:47.7,37.76229229,-4.109138149,-0.404315406,-7.964649751,15.39196274,-0.673187516,-0.272543705,0.533888269
47:47.7,9.960094484,-4.109138149,3.22205822,2.914471128,14.46290767,-0.632554084,-0.256093034,0.501662905
47:47.7,-17.84210332,-6.526720566,5.236710235,19.03168725,13.34951188,-0.58385827,-0.236378264,0.463043467
47:47.7,-11.39521687,-5.72085976,5.236710235,5.734983949,12.40998559,-0.542766865,-0.21974218,0.430454896
47:47.7,7.542512067,-3.706207746,4.833779832,-9.576371363,11.69512396,-0.511501462,-0.207084208,0.405659083
47:47.7,-13.00693848,-4.914998955,2.416197414,-18.03790982,10.98700341,-0.480530888,-0.194545599,0.381097091
47:47.7,-9.783495259,-7.332581372,-0.001385003,-19.24670103,10.38981809,-0.454412212,-0.183971308,0.360383019
47:47.7,12.78060731,-4.914998955,6.445501444,4.123262337,9.733664988,-0.425714502,-0.172352881,0.337623579
47:47.7,17.61577214,-5.72085976,3.22205822,-3.532415319,9.001638791,-0.393698384,-0.159390978,0.312232393
47:47.7,2.707347231,-8.944302984,-2.418967421,5.332053546,8.370842799,-0.366109701,-0.148221546,0.290352494
47:47.7,-17.03624251,-9.347233387,-0.807245809,17.41996563,7.806960007,-0.341447553,-0.138236938,0.270793559
47:47.8,-24.69192017,-8.541372581,-1.613106615,4.52619274,6.978415832,-0.305210096,-0.123566003,0.242054533
47:47.8,-12.60400808,-7.332581372,0.804475803,1.302749516,5.880450219,-0.257189141,-0.104124452,0.203970308
47:47.8,8.348372872,-7.735511775,-6.44827145,-18.84377063,4.650622272,-0.203401016,-0.082348031,0.161312285
47:47.8,-0.113165589,-4.914998955,-7.254132256,-10.78516257,3.205713016,-0.14020603,-0.05676319,0.111193913
47:47.8,-6.962982439,-9.347233387,-0.404315406,-3.935345722,1.785309835,-0.078082848,-0.031612275,0.061925564
47:47.8,-0.113165589,-10.958955,-1.210176212,-13.20274499,0.405010042,-0.017713641,-0.007171466,0.014048248
47:47.8,14.39232892,-6.526720566,-2.418967421,-23.27600506,-1.123626816,0.049143281,0.01989593,-0.038974313
47:47.8,2.304416828,-9.75016379,-2.016037018,-3.129484916,-2.747668944,0.120172876,0.048652656,-0.095306118
47:47.8,-2.93367841,-13.37653742,-2.821897824,-0.308972095,-4.028786746,0.17620423,0.071337261,-0.139743191
47:47.8,-5.75419123,-14.18239822,-1.210176212,-2.32362411,-4.943857995,0.216226062,0.087540322,-0.171483509
47:47.8,-2.93367841,-13.37653742,-2.821897824,-0.308972095,-5.660951997,0.247589101,0.100237823,-0.196356755
47:47.8,-2.93367841,-13.37653742,-2.821897824,-0.308972095,-6.058691489,0.264984755,0.10728055,-0.210152816
47:47.8,-2.93367841,-13.37653742,-2.821897824,-0.308972095,-6.434426747,0.281418025,0.113933651,-0.223185634
47:47.8,-2.93367841,-13.37653742,-2.821897824,-0.308972095,-6.795658408,0.297216962,0.120329938,-0.235715377
47:47.8,-2.93367841,-13.37653742,-2.821897824,-0.308972095,-6.884294372,0.301093571,0.121899405,-0.23878982
47:47.8,-8.574704051,-10.958955,-1.210176212,11.77893999,-6.755940092,0.29547983,0.11962665,-0.234337701
47:47.8,-7.365912842,-10.15309419,-4.433619436,4.52619274,-6.657824797,0.29118863,0.117889334,-0.230934457
47:47.9,-23.08019856,-11.7648158,-2.016037018,-3.935345722,-6.574999215,0.287566145,0.116422751,-0.228061554
47:47.9,-10.99228647,-7.332581372,-2.016037018,-10.38223217,-6.420470758,0.280807642,0.113686534,-0.222701554
47:47.9,1.09562562,-5.317929358,-7.254132256,-22.06721385,-6.248722951,0.273296028,0.110645415,-0.21674428
47:47.9,8.348372872,-4.914998955,-5.642410644,-29.72289151,-5.837315344,0.255302581,0.103360668,-0.202474125
47:47.9,5.527860052,-4.109138149,-0.807245809,-5.547067333,-5.16931599,0.22608676,0.091532481,-0.179303784
47:47.9,11.16888569,-4.512068552,0.4015454,-8.367580154,-4.395805208,0.19225626,0.077836015,-0.152473656
47:47.9,6.333720858,-5.317929358,-0.807245809,-20.85842264,-3.462736401,0.151447282,0.061314273,-0.120109071
47:47.9,-6.962982439,-7.332581372,-1.613106615,4.123262337,-2.738332253,0.119764524,0.048487333,-0.094982264
47:47.9,8.751303275,-2.90034694,1.610336608,7.749635963,-2.271304645,0.099338464,0.040217729,-0.078782864
47:47.9,-0.113165589,-4.109138149,5.236710235,0.899819113,-1.845973279,0.080736043,0.032686435,-0.064029747
47:47.9,-17.43917291,-6.123790163,5.236710235,-3.129484916,-1.568806865,0.068613809,0.027778682,-0.054415905
47:47.9,-6.560052036,-5.317929358,0.804475803,-16.42618821,-1.257947409,0.055017967,0.022274329,-0.04363338
47:47.9,-1.724887201,-5.72085976,1.610336608,-4.741206528,-0.897090262,0.03923541,0.015884674,-0.031116627
47:47.9,-3.739539216,-5.72085976,6.445501444,-5.949997736,-0.67144547,0.029366541,0.011889207,-0.023289873
47:47.9,-23.08019856,-10.5560246,5.236710235,-8.367580154,-0.544621486,0.023819729,0.00964355,-0.018890835
47:47.9,-23.88605936,-12.16774621,3.22205822,-13.20274499,-0.191724919,0.008385339,0.003394851,-0.006650204
47:47.9,2.707347231,-11.3618854,2.013267011,-32.54340433,0.390196282,-0.017065742,-0.00690916,0.013534415
47:47.9,4.319068843,-9.75016379,2.416197414,-19.24670103,1.067820628,-0.046702524,-0.018907776,0.03703861
47:47.9,-24.28898976,-10.15309419,-0.404315406,-9.17344096,1.921991896,-0.084060816,-0.034032488,0.066666542
47:47.9,-8.574704051,-12.97360701,-2.016037018,-5.949997736,2.714023062,-0.11870133,-0.048056893,0.094139071
47:47.9,-4.948330424,-12.57067661,-1.210176212,-9.979301766,3.428161318,-0.149935095,-0.060702056,0.118909794
47:47.9,-0.113165589,-12.97360701,-3.62775863,-15.62032741,4.249975353,-0.185878201,-0.075253822,0.147415377
47:47.9,-12.60400808,-8.541372581,1.207406206,-20.45549224,5.126292598,-0.224205076,-0.090770671,0.177811467
47:47.9,2.707347231,-12.16774621,-2.016037018,-8.367580154,5.837762556,-0.255322141,-0.103368587,0.202489637
47:47.9,2.707347231,-12.16774621,-2.016037018,-8.367580154,6.382852162,-0.279162344,-0.113020425,0.221396709
47:47.9,2.707347231,-12.16774621,-2.016037018,-8.367580154,6.826572791,-0.298569043,-0.120877335,0.236787679
47:47.9,2.707347231,-12.16774621,-2.016037018,-8.367580154,7.1107164,-0.310996433,-0.125908633,0.246643533
47:47.9,2.707347231,-12.16774621,-2.016037018,-8.367580154,7.405877518,-0.323905689,-0.131135017,0.256881542
47:47.9,2.707347231,-12.16774621,-2.016037018,-8.367580154,7.714598204,-0.337407989,-0.136601499,0.267589881
47:47.9,-13.81279929,-9.347233387,-3.224828227,-25.29065708,7.89961841,-0.345500089,-0.13987763,0.274007524
47:47.9,-4.142469618,-8.944302984,-5.642410644,0.093958308,7.99347393,-0.349604982,-0.141539519,0.277263013
47:47.9,-2.530748007,-9.347233387,-0.807245809,15.80824402,8.086813991,-0.353687331,-0.143192281,0.280500622
47:47.9,-10.18642566,-9.347233387,5.236710235,0.899819113,8.169108663,-0.357286596,-0.144649463,0.283355109
47:47.9,-6.560052036,-8.944302984,5.639640638,1.705679919,8.216287033,-0.359350003,-0.145484845,0.284991546
47:47.9,15.19818972,-12.57067661,4.027919026,-1.517763304,8.246810981,-0.360685008,-0.146025329,0.286050305
47:47.9,20.03335456,-7.735511775,1.207406206,-12.79981459,8.166262506,-0.357162115,-0.144599066,0.283256387
47:47.9,-1.321956798,-9.347233387,0.4015454,-11.99395378,7.968210505,-0.348500053,-0.141092182,0.276386721
47:47.9,10.76595529,-11.7648158,4.027919026,-19.24670103,7.71248793,-0.337315694,-0.136564132,0.267516684
47:47.9,5.527860052,-9.75016379,2.819127817,-36.16977796,7.375928373,-0.322595824,-0.130604711,0.255842721
47:47.9,5.527860052,-10.5560246,-0.807245809,-16.42618821,7.178225474,-0.31394903,-0.127104009,0.248985164
47:47.9,27.68903221,-8.541372581,-1.210176212,10.97307919,7.145281457,-0.312508181,-0.126520673,0.247842462
47:47.9,13.58646811,-5.317929358,-0.807245809,3.317401531,7.155197254,-0.312941861,-0.126696251,0.248186404
47:47.9,-8.574704051,-4.914998955,2.819127817,4.52619274,7.270808641,-0.317998275,-0.128743368,0.25219652
47:47.9,-5.75419123,-7.735511775,4.430849429,2.914471128,7.377148334,-0.32264918,-0.130626313,0.255885037
47:47.9,8.751303275,-6.526720566,3.22205822,9.361357575,7.465190011,-0.326499798,-0.132185257,0.258938866
47:47.9,6.333720858,-4.512068552,4.833779832,22.25513047,7.648036205,-0.334496814,-0.135422893,0.2652811
47:47.9,3.91613844,-2.90034694,8.057223055,8.152566366,7.902795779,-0.345639055,-0.139933891,0.274117735
47:47.9,-2.530748007,-2.90034694,7.251362249,-1.920693707,8.048768635,-0.352023368,-0.142518616,0.279180974
47:48.0,-17.43917291,-6.929650969,4.027919026,-16.42618821,8.085636151,-0.353635817,-0.143171425,0.280459767
47:48.0,-4.142469618,-6.929650969,4.027919026,-22.47014426,8.08595196,-0.353649629,-0.143177017,0.280470721
47:48.0,5.930790455,-5.317929358,4.430849429,-22.87307466,8.005220478,-0.350118733,-0.141747514,0.277670455
47:48.0,5.930790455,-5.317929358,4.027919026,-17.63497942,7.97934496,-0.348987033,-0.141289339,0.276772933
47:48.0,8.348372872,-6.929650969,3.22205822,-17.23204902,8.01729055,-0.350646633,-0.141961237,0.27808912
47:48.0,-6.560052036,-12.97360701,3.624988623,-11.59102338,8.01493193,-0.350543476,-0.141919473,0.278007309
47:48.0,-16.63331211,-13.77946782,4.430849429,-1.114832901,8.002770503,-0.35001158,-0.141704132,0.277585475
47:48.0,-6.560052036,-12.97360701,3.624988623,-11.59102338,8.018735841,-0.350709845,-0.141986829,0.278139252
47:48.0,-6.560052036,-12.97360701,3.624988623,-11.59102338,8.055308779,-0.35230941,-0.142634421,0.279407827
47:48.0,-6.560052036,-12.97360701,3.624988623,-11.59102338,8.116592581,-0.354989736,-0.143719567,0.281533527
47:48.0,-6.560052036,-12.97360701,3.624988623,-11.59102338,8.210772417,-0.359108814,-0.145387198,0.284800265
47:48.0,-6.560052036,-12.97360701,3.624988623,-11.59102338,8.291248035,-0.36262852,-0.146812171,0.287591656
47:48.0,-17.03624251,-11.7648158,4.027919026,-16.02325781,8.358697122,-0.365578494,-0.148006484,0.289931207
47:48.0,-24.28898976,-8.944302984,4.833779832,-18.84377063,8.443403994,-0.369283259,-0.149506379,0.292869364
47:48.0,0.289764814,-4.512068552,0.4015454,-9.979301766,8.536166543,-0.37334035,-0.151148914,0.296086942
47:48.0,12.3776769,-2.497416537,-0.001385003,-31.73754352,8.647298664,-0.378200857,-0.153116718,0.29994169
47:48.0,-8.574704051,-9.347233387,4.027919026,-23.67893546,8.781146769,-0.384054879,-0.155486751,0.304584368
47:48.0,-6.157121633,-17.00291104,3.624988623,1.302749516,8.926777083,-0.39042421,-0.15806541,0.309635726
47:48.0,18.01870254,-9.75016379,4.833779832,-24.88772667,9.088015257,-0.397476171,-0.160920436,0.315228461
47:48.0,20.43628496,-4.512068552,-0.001385003,-36.97563876,9.268156134,-0.405354867,-0.164110169,0.321476859
47:48.0,1.498556023,-11.7648158,-1.210176212,-20.05256184,9.46685119,-0.414045054,-0.16762844,0.32836883
47:48.0,-16.63331211,-13.77946782,3.22205822,2.914471128,9.686199228,-0.423638525,-0.17151241,0.335977174
47:48.0,-8.171773648,-8.541372581,6.445501444,7.34670556,9.927318466,-0.434184189,-0.175781881,0.344340677
47:48.0,-6.157121633,-9.75016379,6.445501444,-5.949997736,10.12282269,-0.442734821,-0.179243651,0.35112197
47:48.1,-16.63331211,-14.58532863,2.416197414,-14.8144666,10.26698667,-0.44904002,-0.181796346,0.356122467
47:48.1,-7.768843245,-10.15309419,-1.210176212,-8.770510557,10.3928113,-0.454543123,-0.184024308,0.360486842
47:48.1,13.18353771,-6.526720566,-4.433619436,-8.770510557,10.48156185,-0.458424744,-0.185595804,0.363565259
47:48.1,16.80991133,-12.57067661,1.610336608,-0.711902498,10.57303351,-0.462425377,-0.187215482,0.36673806
47:48.1,10.76595529,-14.98825903,4.430849429,-23.27600506,10.66963859,-0.466650525,-0.188926057,0.370088921
47:48.1,13.98939851,-12.57067661,-0.807245809,-11.99395378,10.73498018,-0.469508325,-0.190083053,0.37235537
47:48.1,13.98939851,-8.138442178,1.207406206,26.2844345,10.77699782,-0.471346021,-0.190827055,0.373812801
47:48.1,-12.20107768,-4.914998955,1.207406206,-15.62032741,10.8425562,-0.474213302,-0.191987889,0.376086771
47:48.1,-11.79814727,-5.317929358,-3.224828227,-40.60201239,10.93090044,-0.478077152,-0.193552191,0.379151094
47:48.1,4.721999246,-8.138442178,-2.821897824,-14.00860579,11.02451863,-0.482171666,-0.195209877,0.382398351
47:48.1,-3.336608813,-6.123790163,-1.210176212,11.77893999,11.13469951,-0.48699057,-0.197160837,0.386220104
47:48.1,6.333720858,-2.094486134,-2.016037018,16.61410483,11.22412901,-0.490901885,-0.198744355,0.389322071
47:48.1,16.80991133,-4.109138149,-0.001385003,-12.39688418,11.29045373,-0.493802683,-0.199918759,0.391622622
47:48.1,17.61577214,-2.094486134,-0.404315406,1.302749516,11.36138528,-0.496904967,-0.201174736,0.394082965
47:48.1,17.61577214,-2.094486134,-0.404315406,1.302749516,11.42847771,-0.499839342,-0.202362734,0.396410145
47:48.1,17.61577214,-2.094486134,-0.404315406,1.302749516,11.52438067,-0.504033782,-0.204060877,0.399736652
47:48.1,17.61577214,-2.094486134,-0.404315406,1.302749516,11.65530921,-0.509760112,-0.206379213,0.404278061
47:48.1,17.61577214,-2.094486134,-0.404315406,1.302749516,11.79982434,-0.516080669,-0.208938126,0.409290738
47:48.1,17.61577214,-2.094486134,-0.404315406,1.302749516,11.96804136,-0.52343786,-0.211916725,0.415125543
47:48.1,3.110277634,-5.317929358,-0.404315406,-9.17344096,12.1477682,-0.531298447,-0.215099127,0.421359579
47:48.1,0.289764814,1.531887492,-2.821897824,-1.114832901,12.33778621,-0.539609132,-0.218463754,0.427950576
47:48.1,-6.157121633,3.546539507,-2.821897824,-7.158788945,12.5534781,-0.549042697,-0.222282986,0.435432102
47:48.1,-21.06554654,-0.885694925,-0.001385003,-18.03790982,12.79277473,-0.559508647,-0.226520184,0.443732386
47:48.1,-5.351260827,0.726026686,5.639640638,-19.64963144,13.02242425,-0.569552667,-0.230586561,0.451698049
47:48.1,1.09562562,-0.079834119,5.236710235,-10.78516257,13.24208631,-0.579159873,-0.234476092,0.459317285
47:48.1,-20.25968574,-5.72085976,3.624988623,7.749635963,13.46687586,-0.588991337,-0.238456414,0.467114374
47:48.1,4.319068843,-5.72085976,4.027919026,-19.64963144,13.68872444,-0.598694173,-0.242384661,0.474809452
47:48.1,20.83921536,-3.706207746,2.819127817,-22.47014426,13.93159657,-0.609316502,-0.24668517,0.483233757
47:48.1,12.78060731,-4.512068552,6.445501444,-5.547067333,14.19758491,-0.620949848,-0.251394995,0.492459874
47:48.1,4.319068843,-4.914998955,6.848431847,-14.4115362,14.46834782,-0.632792016,-0.256189362,0.501851603
47:48.1,-21.06554654,-5.317929358,5.236710235,-24.88772667,14.7495474,-0.645090645,-0.261168531,0.51160534
47:48.1,-1.321956798,-9.75016379,6.042571041,-15.62032741,15.03171226,-0.657431493,-0.266164792,0.521392559
47:48.2,15.60112013,-8.138442178,6.848431847,-8.367580154,15.31204389,-0.669692161,-0.271128591,0.53111619
47:48.2,7.945442469,-7.735511775,4.430849429,-21.26135305,15.59924066,-0.682253085,-0.276213951,0.541077947
47:48.2,3.513208037,-13.77946782,2.013267011,-26.09651788,15.89020332,-0.694978716,-0.281365994,0.551170327
47:48.2,-13.81279929,-15.39118943,3.22205822,-8.367580154,16.18643671,-0.707934869,-0.286611364,0.56144553
47:48.2,9.960094484,-13.37653742,4.027919026,-14.00860579,16.48864133,-0.721152181,-0.291962466,0.571927851
47:48.2,13.98939851,-10.958955,4.430849429,-22.47014426,16.7932786,-0.734475888,-0.297356643,0.582494552
47:48.2,0.692695217,-10.15309419,3.624988623,-7.964649751,17.10066369,-0.747919775,-0.302799475,0.593156564
47:48.2,1.498556023,-10.15309419,2.013267011,-19.64963144,17.42523253,-0.762115216,-0.308546578,0.604414615
47:48.2,6.333720858,-6.929650969,-0.404315406,-19.24670103,17.76768961,-0.777093021,-0.314610426,0.61629314
47:48.2,19.63042415,-3.706207746,-3.224828227,-0.308972095,18.12128097,-0.7925578,-0.320871428,0.628557871
47:48.2,8.751303275,-3.706207746,-3.224828227,6.943775157,18.48978039,-0.808674601,-0.327396404,0.641339705
47:48.2,1.901486426,-6.123790163,-4.433619436,-3.129484916,18.86398416,-0.82504089,-0.334022387,0.654319402
47:48.2,20.43628496,-3.706207746,-5.239480241,-13.60567539,19.24323357,-0.841627856,-0.340737713,0.667474112
47:48.2,1.901486426,-6.123790163,-4.433619436,-3.129484916,19.63531644,-0.858776111,-0.347680279,0.681073966
47:48.2,1.901486426,-6.123790163,-4.433619436,-3.129484916,20.03824847,-0.876398867,-0.35481495,0.695050136
47:48.2,1.901486426,-6.123790163,-4.433619436,-3.129484916,20.33028571,-0.889171496,-0.359986019,0.705179789
47:48.2,1.901486426,-6.123790163,-4.433619436,-3.129484916,20.49992117,-0.896590723,-0.362989735,0.711063794
47:48.2,1.901486426,-6.123790163,-4.433619436,-3.129484916,20.60276614,-0.901088782,-0.364810799,0.714631093
47:48.2,27.68903221,-2.094486134,-0.807245809,-5.144136931,20.60371285,-0.901130188,-0.364827562,0.71466393
47:48.2,32.12126665,-5.317929358,2.416197414,-3.129484916,20.57442737,-0.899849349,-0.364309007,0.713648129
47:48.2,17.61577214,-7.332581372,5.639640638,-6.755858542,20.51734602,-0.897352822,-0.363298274,0.711668196
47:48.2,-10.18642566,-8.944302984,2.416197414,-19.64963144,20.36460199,-0.890672363,-0.360593654,0.70637009
47:48.2,1.09562562,-10.5560246,-0.807245809,-27.30530909,20.12910343,-0.880372527,-0.356423708,0.698201546
47:48.2,-12.60400808,-8.944302984,4.027919026,-9.979301766,19.8952771,-0.870145828,-0.352283372,0.690091006
47:48.2,-12.60400808,-6.123790163,7.654292652,-9.979301766,19.66023458,-0.859865938,-0.348121501,0.681938281
47:48.2,5.930790455,-6.929650969,9.266014264,-16.42618821,19.39015828,-0.8480538,-0.343339292,0.672570368
47:48.2,6.736651261,-6.123790163,10.47480547,-23.27600506,19.10421533,-0.835547713,-0.338276133,0.662652101
47:48.2,14.39232892,-4.914998955,12.48945749,0.093958308,18.73226448,-0.819279958,-0.331690042,0.64975055
47:48.2,12.3776769,-7.332581372,8.460153458,-1.920693707,18.26839098,-0.798991847,-0.323476287,0.633660554
47:48.2,1.09562562,-8.944302984,10.47480547,-22.87307466,17.76194426,-0.776841741,-0.314508694,0.616093856
47:48.2,14.79525932,-10.15309419,16.11583111,-36.57270836,17.19582111,-0.752081609,-0.304484417,0.596457211
47:48.2,13.58646811,-12.57067661,11.68359668,-18.84377063,16.65506691,-0.72843102,-0.294909345,0.577700518
47:48.2,-20.66261614,-15.79411983,11.68359668,16.21117443,16.15226305,-0.706440239,-0.286006255,0.560260176
47:48.2,-23.48312896,-15.39118943,9.266014264,-6.755858542,15.63398269,-0.683772573,-0.276829124,0.542283014
47:48.2,-6.962982439,-11.7648158,6.848431847,-9.576371363,15.12499061,-0.661511142,-0.26781646,0.524628028
47:48.2,19.22749375,-8.541372581,6.848431847,-8.770510557,14.58606323,-0.637940452,-0.258273736,0.5059347
47:48.3,17.21284174,-3.706207746,5.236710235,-7.561719348,14.01286732,-0.612870983,-0.248124222,0.486052728
47:48.3,0.289764814,-0.482764522,4.833779832,-14.8144666,13.44682102,-0.588114212,-0.238101305,0.466418748
47:48.3,1.901486426,-1.691555731,3.22205822,-29.31996111,12.8798439,-0.56331673,-0.228061907,0.446752482
47:48.3,-15.8274513,-3.706207746,7.251362249,-10.38223217,12.23014339,-0.534901233,-0.216557735,0.424216859
47:48.3,-28.7212242,-4.914998955,4.430849429,-12.39688418,11.49612015,-0.502797772,-0.203560471,0.398756402
47:48.3,16.40698093,-1.691555731,1.610336608,-17.23204902,10.71179684,-0.468494371,-0.189672548,0.371551229
47:48.3,21.24214577,-2.094486134,-0.404315406,-6.755858542,9.856429514,-0.431083768,-0.174526658,0.341881811
47:48.3,-15.8274513,-7.332581372,0.4015454,6.137914352,8.988208668,-0.393111,-0.159153172,0.311766553
47:48.3,21.24214577,-2.094486134,-0.404315406,-6.755858542,8.110770781,-0.354735113,-0.143616481,0.281331591
47:48.3,21.24214577,-2.094486134,-0.404315406,-6.755858542,7.177744595,-0.313927998,-0.127095494,0.248968485
47:48.3,21.24214577,-2.094486134,-0.404315406,-6.755858542,6.201812961,-0.271244359,-0.109814785,0.215117152
47:48.3,21.24214577,-2.094486134,-0.404315406,-6.755858542,5.383561252,-0.235457056,-0.095326097,0.186735132
47:48.3,21.24214577,-2.094486134,-0.404315406,-6.755858542,4.738018688,-0.207223412,-0.083895549,0.164343732
47:48.3,10.36302489,-5.72085976,10.87773588,22.65806087,4.180060451,-0.182820382,-0.074015847,0.144990296
47:48.3,18.01870254,-5.72085976,10.07187507,0.496888711,3.766391013,-0.164728011,-0.06669105,0.130641687
47:48.3,-0.516095992,-6.929650969,5.236710235,-3.532415319,3.370494273,-0.147412952,-0.059680953,0.116909545
47:48.3,14.79525932,-7.332581372,5.236710235,-0.308972095,2.988481964,-0.130705147,-0.052916705,0.103659
47:48.3,16.80991133,-9.75016379,6.445501444,-11.59102338,2.734995468,-0.119618585,-0.048428249,0.094866524
47:48.3,7.945442469,-8.944302984,10.07187507,35.14890336,2.586708245,-0.11313305,-0.045802544,0.089723007
47:48.3,7.945442469,-10.15309419,9.668944667,41.99872021,2.415956362,-0.105664995,-0.04277906,0.083800278
47:48.3,-2.530748007,-9.347233387,5.236710235,-1.517763304,2.228300325,-0.097457614,-0.039456256,0.077291209
47:48.3,-6.962982439,-11.7648158,4.833779832,7.749635963,2.072184323,-0.090629677,-0.036691928,0.071876142
47:48.3,-19.85675533,-17.00291104,7.251362249,23.06099128,1.918853314,-0.083923546,-0.033976914,0.066557676
47:48.3,-15.4245209,-10.5560246,5.639640638,0.496888711,1.87763771,-0.082120928,-0.033247114,0.065128065
47:48.3,-13.00693848,-10.958955,4.833779832,-11.99395378,1.957246889,-0.085602739,-0.034656744,0.067889402
47:48.3,-10.58935606,-12.97360701,3.624988623,2.108610322,2.081635664,-0.091043044,-0.036859282,0.072203973
47:48.3,-1.724887201,-10.958955,1.610336608,19.43461765,2.277314024,-0.099601292,-0.040324136,0.078991306
47:48.3,-13.40986889,-12.57067661,4.833779832,2.108610322,2.390471688,-0.104550389,-0.042327806,0.082916312
47:48.3,-11.79814727,-11.7648158,4.430849429,-5.949997736,2.399448309,-0.104942994,-0.042486754,0.083227677
47:48.4,-17.84210332,-11.7648158,0.804475803,13.3906616,2.397310606,-0.104849498,-0.042448902,0.083153528
47:48.4,-14.21572969,-11.7648158,0.804475803,20.24047845,2.33932393,-0.102313376,-0.041422138,0.081142192
47:48.4,-18.64796412,-10.5560246,2.416197414,34.34304256,2.29876577,-0.100539512,-0.04070398,0.079735385
47:48.4,-35.16811064,-6.526720566,3.624988623,23.06099128,2.28279579,-0.099841044,-0.040421201,0.079181448
47:48.4,-8.977634454,-4.109138149,4.833779832,3.317401531,2.215179619,-0.096883763,-0.039223929,0.076836102
47:48.4,6.333720858,-0.079834119,3.22205822,10.57014878,2.110667523,-0.09231279,-0.037373346,0.073210977
47:48.4,-7.768843245,0.323096284,2.416197414,12.5848008,2.110718482,-0.092315019,-0.037374248,0.073212745
47:48.4,-6.157121633,-5.72085976,2.013267011,17.82289604,2.217233297,-0.096973583,-0.039260294,0.076907336
47:48.4,7.139581664,-0.482764522,3.22205822,8.555496769,2.371545547,-0.10372263,-0.041992683,0.082259837
47:48.4,-6.962982439,-2.094486134,6.042571041,-18.44084023,2.609091762,-0.114112023,-0.046198886,0.090499406
47:48.4,7.139581664,-0.482764522,3.22205822,8.555496769,2.827380455,-0.123659163,-0.050064099,0.098071005
47:48.4,7.139581664,-0.482764522,3.22205822,8.555496769,3.019690339,-0.132070086,-0.053469308,0.104741499
47:48.4,7.139581664,-0.482764522,3.22205822,8.555496769,3.2664469,-0.142862305,-0.057838598,0.113300539
47:48.4,7.139581664,-0.482764522,3.22205822,8.555496769,3.544952173,-0.155043095,-0.062770058,0.122960821
47:48.4,7.139581664,-0.482764522,3.22205822,8.555496769,3.580865257,-0.156613801,-0.063405967,0.124206509
47:48.4,-8.171773648,-7.735511775,4.430849429,1.705679919,3.355271543,-0.146747166,-0.059411405,0.116381526
47:48.4,11.5718161,-6.123790163,1.610336608,22.25513047,2.980555543,-0.130358474,-0.052776352,0.103384063
47:48.4,9.154233678,-5.317929358,2.013267011,18.62875684,2.379436216,-0.104067739,-0.042132402,0.082533534
47:48.4,-19.45382493,-6.123790163,4.833779832,2.914471128,1.728651637,-0.075604828,-0.030609035,0.059960308
47:48.4,-20.66261614,-4.109138149,2.819127817,-4.338276125,1.032998036,-0.045179513,-0.018291177,0.035830748
47:48.4,-1.321956798,-3.706207746,5.236710235,8.152566366,0.134001372,-0.005860724,-0.002372747,0.004647995
47:48.4,-2.530748007,-6.526720566,4.833779832,2.914471128,-0.935853172,0.040930756,0.016571044,-0.032461164
47:48.4,-11.79814727,-6.123790163,2.416197414,3.720331934,-2.008619508,0.087849587,0.035566393,-0.069671322
47:48.4,-12.20107768,-3.303277343,10.07187507,-18.03790982,-3.092751977,0.135265531,0.054763002,-0.107275727
47:48.4,-18.24503372,-6.123790163,10.07187507,-47.45182924,-4.251065137,0.185925865,0.075273119,-0.147453177
47:48.4,-34.76518024,-8.944302984,6.848431847,-29.72289151,-5.446203633,0.238196802,0.096435298,-0.188907957
47:48.4,-49.27067475,-8.138442178,13.6982487,-27.70823949,-6.824675181,0.298486048,0.120843735,-0.236721858
47:48.4,-63.77616925,-8.541372581,18.53341353,-33.34926514,-8.39827822,0.367309624,0.148707342,-0.291304124
47:48.4,-61.76151724,-8.541372581,17.72755273,-47.04889883,-10.06634367,0.440264637,0.178243584,-0.349162929
47:48.5,-66.99961248,-8.138442178,18.93634393,-85.32728711,-11.86465012,0.518915909,0.210085988,-0.411539296
47:48.5,-83.519759,-10.15309419,25.38323038,-99.42985122,-13.57623908,0.593774479,0.240392896,-0.470907766
47:48.5,-103.6662791,-10.5560246,27.3978824,-95.80347759,-15.17146575,0.663543793,0.26863939,-0.526240072
47:48.5,-137.1095026,-10.5560246,35.45649045,-108.6972505,-16.78059986,0.733921367,0.297132142,-0.582054775
47:48.5,-150.0032755,-10.15309419,39.08286408,-130.4554922,-18.34088073,0.802162281,0.324759855,-0.636174946
47:48.5,-128.2450337,-4.914998955,38.27700327,-148.18443,-19.95745605,0.872865306,0.353384368,-0.692247756
47:48.5,-137.9153634,-0.482764522,39.48579448,-170.7485325,-21.64056202,0.946478135,0.38318693,-0.750628259
47:48.5,-172.9703084,-1.691555731,37.87407287,-188.4774703,-23.28224734,1.018279379,0.412256063,-0.807572039
47:48.5,-171.3585868,-0.885694925,39.48579448,-190.0891919,-24.90387016,1.089203162,0.44096995,-0.863819927
47:48.5,-189.8933854,-2.497416537,39.48579448,-211.0415728,-26.70270549,1.167877566,0.47282172,-0.926214639
47:48.5,-206.4135319,-6.929650969,40.69458569,-202.177104,-28.68140553,1.254418586,0.507858332,-0.994848169
47:48.5,-196.3402718,-3.706207746,40.69458569,-187.2686791,-30.75887097,1.34527924,0.544643773,-1.066907493
47:48.5,-206.4135319,-6.929650969,40.69458569,-202.177104,-32.98463134,1.442625766,0.584055055,-1.1441106
47:48.5,-206.4135319,-6.929650969,40.69458569,-202.177104,-35.21558554,1.54019945,0.623558303,-1.221493862
47:48.5,-206.4135319,-6.929650969,40.69458569,-202.177104,-37.44260684,1.637601124,0.662991911,-1.298740706
47:48.5,-206.4135319,-6.929650969,40.69458569,-202.177104,-39.77816043,1.739749599,0.704347289,-1.37975212
47:48.5,-206.4135319,-6.929650969,40.69458569,-202.177104,-42.19072208,1.845266122,0.747066239,-1.463434648
47:48.5,-206.8164623,-2.094486134,41.5004465,-178.8071406,-44.02469947,1.925477509,0.779540265,-1.527048304
47:48.5,-193.1168286,-1.288625328,41.0975161,-170.3456021,-45.22578535,1.978008563,0.800807754,-1.568709375
47:48.5,-187.0728725,-1.288625328,39.88872489,-185.254027,-46.07854747,2.015305223,0.815907514,-1.598288429
47:48.5,-196.7432022,-2.094486134,44.72388972,-192.5067743,-46.39580547,2.029180915,0.821525165,-1.609292894
47:48.5,-184.2523597,-1.691555731,42.3063073,-182.8364446,-46.58057732,2.037262152,0.824796898,-1.615701923
47:48.5,-166.9263524,4.352400313,36.66528166,-167.9280197,-46.64498123,2.040078941,0.825937291,-1.617935848
47:48.5,-156.0472315,5.561191522,35.85942086,-162.6899245,-46.21704066,2.021362403,0.818359797,-1.603092227
47:48.5,-173.3732388,0.323096284,31.83011683,-153.8254556,-45.36991004,1.984312043,0.803359753,-1.573708509
47:48.5,-163.2999788,8.381704342,31.42718642,-118.7705106,-44.53391245,1.947748601,0.78855684,-1.544710953
47:48.5,-139.1241546,9.590495551,33.84476884,-105.4738073,-43.6911945,1.910891235,0.773634931,-1.515480293
47:48.5,-142.3475978,6.76998273,33.03890804,-125.217397,-42.67406674,1.866405829,0.755624767,-1.480200024
47:48.5,-143.9593194,4.755330716,33.03890804,-114.3382761,-41.57925832,1.818522959,0.736239121,-1.442225311
47:48.6,-140.3329458,3.143609104,31.42718642,-89.75952155,-40.04125667,1.751256455,0.709005904,-1.388877921
47:48.6,-134.6919202,5.964121925,24.57736957,-86.53607832,-38.02970922,1.663278811,0.673387665,-1.31910504
47:48.6,-99.23404471,5.964121925,23.36857837,-55.9133677,-35.79886157,1.565709786,0.633886304,-1.241725474
47:48.6,-107.6955832,7.575843536,29.81546481,-51.48113327,-33.25940973,1.454643556,0.588920524,-1.153641611
47:48.6,-129.8567553,5.964121925,28.6066736,-53.89871568,-30.90174841,1.351528171,0.547173687,-1.071863364
47:48.6,-100.4428359,1.934817895,22.15978716,-36.16977796,-28.79540118,1.259404335,0.50987684,-0.998802242
47:48.6,-92.38422786,-0.079834119,19.33927434,-38.99029078,-26.63936295,1.165107198,0.471700121,-0.924017529
47:48.6,-91.57836705,-2.90034694,18.13048313,-21.26135305,-24.57586559,1.074857456,0.435162011,-0.852442704
47:48.6,-78.28166376,-0.482764522,20.14513514,-16.42618821,-22.37243586,0.97848759,0.396146136,-0.776014161
47:48.6,-75.05822053,-2.094486134,18.53341353,-14.00860579,-20.00495977,0.874942943,0.35422551,-0.693895478
47:48.6,-69.8201253,-6.526720566,11.28066628,11.77893999,-17.71498904,0.774788093,0.313677263,-0.614465159
47:48.6,-72.64063812,-6.123790163,7.251362249,12.9877312,-15.45491313,0.675940733,0.27365836,-0.536071777
47:48.6,-64.98496046,-6.123790163,7.251362249,32.73132095,-12.76637007,0.558353805,0.226052639,-0.44281651
47:48.6,-55.31463079,-4.914998955,6.042571041,37.56648578,-9.641729007,0.421693562,0.170724981,-0.334434672
47:48.6,-64.98496046,-6.123790163,7.251362249,32.73132095,-6.270354899,0.274242129,0.111028449,-0.217494609
47:48.6,-64.98496046,-6.123790163,7.251362249,32.73132095,-2.536518697,0.110937945,0.044913843,-0.087982124
47:48.6,-64.98496046,-6.123790163,7.251362249,32.73132095,1.230575914,-0.053820839,-0.021789665,0.042683968
47:48.6,-64.98496046,-6.123790163,7.251362249,32.73132095,5.010237165,-0.219129241,-0.08871569,0.173785949
47:48.6,-64.98496046,-6.123790163,7.251362249,32.73132095,9.063121046,-0.39638739,-0.160479637,0.314364977
47:48.6,-71.43184691,-8.138442178,4.833779832,18.62875684,13.31716047,-0.582443339,-0.235805421,0.46192132
47:48.6,-69.01426449,-8.138442178,3.22205822,17.41996563,17.07179871,-0.746657327,-0.302288366,0.592155348
47:48.6,-58.94100442,-6.526720566,1.207406206,23.86685208,20.28604772,-0.88723669,-0.359202702,0.703645343
47:48.6,-64.58203006,-8.138442178,2.819127817,45.22216344,23.23791259,-1.01634034,-0.411471032,0.806034236
47:48.6,-69.41719489,-11.7648158,2.819127817,41.59578981,25.73264576,-1.125450741,-0.455644984,0.89256698
47:48.6,-66.19375167,-16.19705024,2.013267011,30.71666893,28.23660163,-1.234964509,-0.499982241,0.979419624
47:48.6,-54.50876998,-17.00291104,0.804475803,51.66904988,30.76287224,-1.345454241,-0.544714623,1.067046282
47:48.6,-53.70290918,-19.01756306,3.22205822,81.4858997,32.90281729,-1.439047522,-0.582606383,1.141272784
47:48.6,-38.39155387,-15.79411983,7.654292652,68.59212681,34.74380543,-1.519565533,-0.615204547,1.205129615
47:48.6,-2.530748007,-10.958955,8.057223055,59.32472754,36.69703369,-1.604992513,-0.649790134,1.272879627
47:48.7,4.319068843,-16.59998064,5.639640638,63.35403157,38.74053885,-1.694367869,-0.685974243,1.343760999
47:48.7,-22.67726815,-26.67324071,8.863083861,56.50421472,40.72681145,-1.781240086,-0.721144943,1.412657192
47:48.7,21.24214577,-24.6585887,10.07187507,60.53351875,42.74759834,-1.869621829,-0.756926783,1.482750554
47:48.7,118.7513033,-16.59998064,14.9070399,69.39798761,44.43985812,-1.943635013,-0.786891431,1.541448568
47:48.7,382.6707172,-19.42049346,12.08652708,77.85952607,45.77612724,-2.002078481,-0.810552594,1.587798629
47:48.7,539.8135743,-27.07617112,-9.671714674,77.85952607,47.00588102,-2.055863363,-0.832327702,1.63045408
47:48.7,380.6560652,-25.86737991,-16.92446193,64.56282278,48.04143673,-2.101154739,-0.850664167,1.666373544
47:48.7,312.9637575,-21.03221507,-14.10394911,39.9840682,49.45719853,-2.163074923,-0.875732898,1.715480901
47:48.7,286.3703509,-23.44979749,-6.851201853,31.52252974,51.33105557,-2.245030499,-0.908913068,1.780477829
47:48.7,259.3740139,-21.43514548,1.207406206,46.02802424,53.32445513,-2.332214422,-0.944209963,1.849621229
47:48.7,222.3044168,-26.27031031,2.013267011,64.96575318,55.60419443,-2.431921786,-0.984577044,1.928696659
47:48.7,198.5315231,-29.49375353,4.027919026,70.60677882,57.89030268,-2.531907705,-1.025056898,2.007993003
47:48.7,192.0846366,-26.27031031,2.416197414,64.96575318,60.15763119,-2.631072267,-1.065204222,2.08663795
47:48.7,167.505882,-26.67324071,-0.807245809,41.59578981,62.69423141,-2.742013778,-1.110119509,2.174622902
47:48.7,126.8099113,-29.49375353,-2.821897824,45.22216344,65.44448473,-2.862299685,-1.158817927,2.270018662
47:48.7,113.513208,-28.28496233,-2.016037018,54.0866323,67.89677699,-2.969553878,-1.202240382,2.355079294
47:48.7,,,,,70.04643526,-3.063571979,-1.240304133,2.42964271
47:48.7,126.8099113,-29.49375353,-2.821897824,45.22216344,72.10491968,-3.153602473,-1.276753478,2.501043655
47:48.7,126.8099113,-29.49375353,-2.821897824,45.22216344,73.94514433,-3.234087093,-1.309338124,2.564874004
47:48.7,126.8099113,-29.49375353,-2.821897824,45.22216344,75.94256118,-3.321446717,-1.344706153,2.634156749
47:48.7,126.8099113,-29.49375353,-2.821897824,45.22216344,78.12248415,-3.416788484,-1.383305797,2.709769932
47:48.7,126.8099113,-29.49375353,-2.821897824,45.22216344,80.19334732,-3.507360379,-1.419974332,2.781600249
47:48.7,127.6157721,-25.86737991,-5.239480241,32.32839054,82.23913344,-3.596835497,-1.45619883,2.852560738
47:48.7,114.7219992,-21.43514548,-4.030689033,7.34670556,83.88767938,-3.668936798,-1.485389442,2.909742486
47:48.7,92.96375749,-20.62928467,-1.210176212,-1.114832901,85.0678875,-3.720554736,-1.506287251,2.950679388
47:48.7,88.93445346,-23.85272789,-0.404315406,35.14890336,86.01325302,-3.761901527,-1.523026729,2.983470499
47:48.7,76.04068057,-26.67324071,1.207406206,33.53718175,86.60664445,-3.787854273,-1.533533843,3.004052977
47:48.7,63.14690767,-28.68789273,-1.210176212,24.26978248,86.99069072,-3.804651037,-1.540334106,3.017374072
47:48.7,75.23481976,-24.2556583,1.610336608,45.62509384,87.17554879,-3.812736045,-1.543607366,3.02378609
47:48.7,77.24947177,-21.03221507,2.013267011,26.2844345,86.98050551,-3.804205573,-1.540153757,3.017020786
47:48.7,79.66705419,-24.2556583,-1.613106615,21.44926966,86.42740561,-3.780015029,-1.530360081,2.997835867
47:48.7,69.99672452,-25.4644495,-2.016037018,25.47857369,85.8887205,-3.756454935,-1.520821646,2.979150943
47:48.7,51.05899558,-23.44979749,-2.016037018,27.89615611,85.36498263,-3.733548578,-1.51154788,2.960984481
47:48.7,63.54983807,-19.01756306,1.207406206,39.17820739,84.68352966,-3.703744346,-1.499481471,2.937347486
47:48.7,55.08829961,-20.22635427,4.833779832,16.21117443,83.93246366,-3.670895497,-1.486182433,2.911295882
47:48.7,58.31174284,-23.44979749,6.445501444,20.24047845,82.83676093,-3.622973513,-1.466780951,2.873290148
47:48.7,76.84654137,-19.42049346,6.848431847,31.11959933,81.36991243,-3.558818985,-1.440807634,2.822410788
47:48.7,59.92346445,-21.43514548,6.042571041,37.16355538,79.73677045,-3.487391396,-1.411889778,2.765763345
47:48.7,46.22383075,-19.82342386,8.863083861,51.26611948,77.87014556,-3.405752128,-1.378837667,2.701017272
47:48.7,67.98207251,-16.59998064,8.460153458,20.24047845,75.91730483,-3.320342098,-1.344258942,2.633280703
47:48.7,69.59379412,-18.61463265,4.027919026,20.64340886,73.91137621,-3.2326102,-1.308740195,2.563702717
47:48.7,61.53518606,-19.01756306,4.833779832,33.94011215,71.73072989,-3.137236796,-1.270127743,2.488064444
47:48.8,71.20551573,-17.00291104,4.430849429,45.62509384,69.41999264,-3.036173696,-1.229211786,2.407913814
47:48.8,55.49123002,-13.77946782,4.430849429,44.81923303,66.93466813,-2.927474795,-1.185204432,2.32170742
47:48.8,47.83555236,-17.00291104,2.819127817,21.85220007,64.26300652,-2.810626198,-1.137897628,2.229037705
47:48.8,56.29709082,-17.40584145,2.416197414,35.55183377,61.46579936,-2.688286704,-1.088367805,2.132013296
47:48.8,63.14690767,-14.98825903,2.819127817,63.75696197,58.53216383,-2.559980337,-1.036422259,2.030256709
47:48.8,61.53518606,-11.7648158,6.042571041,56.10128432,55.26517696,-2.417094416,-0.978574101,1.916937441
47:48.8,63.14690767,-14.98825903,2.819127817,63.75696197,51.65488821,-2.259193741,-0.914647135,1.791710344
47:48.8,63.14690767,-14.98825903,2.819127817,63.75696197,47.78727143,-2.090038489,-0.846163692,1.657557522
47:48.8,63.14690767,-14.98825903,2.819127817,63.75696197,43.60971702,-1.907327712,-0.772192219,1.512654151
47:48.8,63.14690767,-14.98825903,2.819127817,63.75696197,39.24862119,-1.716589512,-0.694970799,1.36138443
47:48.8,63.14690767,-14.98825903,2.819127817,63.75696197,34.71066728,-1.518116193,-0.614617773,1.20398018
47:48.8,66.37035089,-12.57067661,5.639640638,24.67271289,29.88700691,-1.307147131,-0.529205777,1.036665866
47:48.8,53.476578,-16.19705024,-2.418967421,10.97307919,24.80331173,-1.084805108,-0.439189374,0.86033194
47:48.8,38.56815309,-16.19705024,-1.613106615,31.11959933,20.52603167,-0.8977327,-0.36345207,0.711969468
47:48.8,46.62676115,-17.00291104,1.207406206,45.22216344,17.14932924,-0.750048226,-0.303661191,0.594844586
47:48.8,54.68536921,-14.98825903,2.013267011,55.29542351,14.18997967,-0.620617222,-0.25126033,0.492196077
47:48.8,72.81723734,-13.37653742,2.013267011,56.90714512,11.95251907,-0.522758972,-0.211641874,0.414587134
47:48.9,58.31174284,-12.57067661,2.819127817,43.20751142,9.796018325,-0.428441606,-0.173456964,0.339786378
47:48.9,40.1798747,-11.7648158,5.236710235,34.34304256,7.696865799,-0.33663244,-0.136287513,0.266974812
47:48.9,47.02969155,-12.57067661,4.833779832,46.02802424,6.251595323,-0.273421655,-0.110696276,0.216843911
47:48.9,33.33005785,-8.944302984,4.833779832,47.23681545,5.342219689,-0.233648929,-0.094594067,0.185301152
47:48.9,24.46558899,-14.18239822,6.445501444,49.65439787,4.238967512,-0.185396759,-0.075058908,0.147033557
47:48.9,34.94177947,-17.00291104,5.639640638,56.90714512,2.965812392,-0.129713664,-0.052515297,0.102872679
47:48.9,45.01503954,-13.77946782,4.430849429,48.04267626,1.808671524,-0.079104602,-0.032025938,0.062735892
47:48.9,51.05899558,-16.19705024,3.22205822,50.46025867,0.600347612,-0.026256984,-0.010630286,0.020823761
47:48.9,73.62309815,-15.39118943,7.251362249,52.47491069,-0.053316181,0.002331853,0.000944063,-0.001849334
47:48.9,53.0736476,-16.59998064,6.042571041,31.92546014,-0.103947771,0.004546291,0.001840591,-0.00360555
47:48.9,10.76595529,-19.82342386,2.819127817,48.04267626,0.019276068,-0.000843064,-0.000341319,0.000668613
47:48.9,15.19818972,-20.62928467,5.639640638,62.54817076,0.462158284,-0.020213094,-0.008183383,0.016030502
47:48.9,27.68903221,-20.22635427,6.042571041,39.9840682,0.463134192,-0.020255776,-0.008200664,0.016064352
47:48.9,29.70368423,-16.19705024,7.654292652,51.66904988,-0.091288973,0.003992642,0.001616443,-0.003166465
47:48.9,45.82090035,-13.77946782,9.266014264,53.6837019,-0.730137838,0.031933528,0.012928466,-0.025325687
47:48.9,63.14690767,-11.7648158,10.47480547,62.95110117,-1.676754326,0.073335032,0.029690095,-0.058160189
47:48.9,39.7769443,-10.958955,10.47480547,53.6837019,-2.580879359,0.112878117,0.045699332,-0.089520826
47:48.9,20.43628496,-11.3618854,8.460153458,59.72765794,-3.406841273,0.149002635,0.060324545,-0.118170283
47:48.9,33.33005785,-10.958955,9.668944667,69.39798761,-4.528073912,0.198041204,0.080178081,-0.157061551
47:48.9,40.98573551,-12.57067661,8.863083861,36.35769457,-5.874614263,0.256933898,0.104021116,-0.203767881
47:48.9,33.33005785,-10.958955,9.668944667,69.39798761,-6.725400469,0.294144139,0.119085889,-0.233278398
47:48.9,33.33005785,-10.958955,9.668944667,69.39798761,-7.069505564,0.309194023,0.125178918,-0.245214087
47:48.9,33.33005785,-10.958955,9.668944667,69.39798761,-7.209952782,0.315336665,0.127665801,-0.250085663
47:48.9,33.33005785,-10.958955,9.668944667,69.39798761,-6.966054823,0.304669471,0.123347128,-0.241625777
47:48.9,33.33005785,-10.958955,9.668944667,69.39798761,-6.856693003,0.299886389,0.12141067,-0.237832434
47:48.9,28.09196262,-17.00291104,3.624988623,44.41630263,-6.91679134,0.302514868,0.122474825,-0.239917015
47:48.9,20.83921536,-17.40584145,1.207406206,77.85952607,-6.738318855,0.294709142,0.119314633,-0.233726488
47:48.9,55.08829961,-14.98825903,4.833779832,75.03901325,-6.436551374,0.281510949,0.113971271,-0.223259329
47:48.9,55.49123002,-13.37653742,4.430849429,60.93644915,-6.38842838,0.279406227,0.113119163,-0.221590126
47:48.9,26.88317141,-12.97360701,1.207406206,71.81557003,-6.585552171,0.288027692,0.116609611,-0.228427596
47:48.9,9.960094484,-10.958955,0.4015454,80.27710849,-6.932408448,0.303197903,0.122751355,-0.240458713
47:48.9,11.9747465,-7.735511775,4.833779832,82.29176051,-7.525499266,0.329137501,0.133253146,-0.261030763
47:48.9,24.46558899,-7.332581372,6.445501444,54.89249311,-8.049383225,0.352050248,0.142529498,-0.279202292
47:48.9,21.24214577,-10.15309419,5.639640638,52.47491069,-8.49942923,0.371733595,0.150498411,-0.294812665
47:48.9,22.04800657,-10.15309419,8.460153458,72.62143084,-9.118121069,0.398792888,0.161453516,-0.316272717
47:48.9,31.31540584,-7.332581372,8.460153458,77.85952607,-9.843660214,0.430525286,0.174300554,-0.341438893
47:48.9,53.0736476,-6.929650969,5.236710235,77.85952607,-10.55316745,0.461556508,0.186863716,-0.366048983
47:48.9,38.9710835,-7.332581372,2.013267011,73.02436124,-11.26660965,0.492759831,0.199496555,-0.390795562
47:48.9,16.80991133,-6.526720566,-1.210176212,81.0829693,-12.00414183,0.525016761,0.212555952,-0.41637773
47:48.9,30.50954503,-5.317929358,-1.613106615,83.09762131,-12.74188707,0.557283008,0.225619121,-0.441967288
47:48.9,22.85386738,-5.317929358,0.4015454,61.74230996,-13.62311895,0.595824831,0.241222993,-0.472533849
47:49.0,13.58646811,-7.735511775,1.207406206,66.57747479,-14.65554374,0.640979273,0.259504019,-0.508344713
47:49.0,36.55350108,-8.944302984,4.430849429,59.32472754,-15.75153302,0.68891379,0.278910574,-0.546360385
47:49.0,21.64507617,-8.944302984,4.027919026,48.04267626,-16.94558582,0.741137243,0.300053529,-0.587777507
47:49.0,1.498556023,-10.15309419,0.4015454,74.23315245,-17.83688804,0.780119505,0.315835715,-0.618693369
47:49.0,27.68903221,-9.347233387,0.804475803,84.30641252,-18.37961331,0.8038563,0.325445688,-0.637518431
47:49.0,43.80624833,-8.541372581,0.4015454,73.83022204,-18.78957318,0.821786429,0.3327048,-0.651738369
47:49.0,30.91247544,-9.75016379,1.207406206,60.53351875,-18.95190939,0.828886414,0.335579269,-0.657369191
47:49.0,36.95643148,-6.526720566,3.22205822,56.50421472,-19.079406,0.834462644,0.337836837,-0.661791561
47:49.0,29.70368423,-7.735511775,1.207406206,76.24780446,-19.18693565,0.839165594,0.339740852,-0.665521353
47:49.0,39.7769443,-5.317929358,2.416197414,77.85952607,-19.06582581,0.833868697,0.337596374,-0.661320516
47:49.0,39.7769443,-5.317929358,2.416197414,77.85952607,-18.75753239,0.820385083,0.332137458,-0.650626997
47:49.0,39.7769443,-5.317929358,2.416197414,77.85952607,-18.57960986,0.81260341,0.328987004,-0.644455546
47:49.0,39.7769443,-5.317929358,2.416197414,77.85952607,-18.53049061,0.810455116,0.328117255,-0.642751787
47:49.0,39.7769443,-5.317929358,2.416197414,77.85952607,-18.4824957,0.808355996,0.327267415,-0.641087027
47:49.0,39.7769443,-5.317929358,2.416197414,77.85952607,-18.51264465,0.809674599,0.327801259,-0.642132779
47:49.0,25.2714498,-4.109138149,2.819127817,56.50421472,-18.3777291,0.803773892,0.325412325,-0.637453075
47:49.0,19.63042415,-1.691555731,2.416197414,65.77161399,-18.06072591,0.789909345,0.319799186,-0.626457448
47:49.0,28.49489302,-2.094486134,-0.807245809,75.03901325,-17.74490456,0.776096488,0.314206974,-0.615502814
47:49.0,44.20917873,-6.123790163,3.624988623,86.32106454,-17.3746861,0.759904502,0.307651558,-0.602661353
47:49.0,32.92712745,-12.57067661,10.47480547,81.0829693,-17.11442729,0.748521744,0.303043186,-0.593633971
47:49.0,19.22749375,-13.37653742,10.07187507,67.3833356,-17.00001428,0.743517742,0.301017288,-0.589665422
47:49.0,32.12126665,-14.18239822,7.654292652,66.98040519,-16.9138093,0.739747455,0.299490866,-0.586675301
47:49.0,48.64141317,-11.3618854,9.668944667,78.26245648,-16.90775491,0.739482658,0.299383662,-0.586465297
47:49.0,36.15057068,-8.541372581,10.47480547,66.57747479,-16.9299195,0.740452056,0.299776128,-0.587234102
47:49.0,26.480241,-11.3618854,6.848431847,54.89249311,-16.97320793,0.742345332,0.300542631,-0.588735612
47:49.0,22.85386738,-6.929650969,8.460153458,70.60677882,-17.11130387,0.748385137,0.30298788,-0.593525631
47:49.0,13.58646811,-6.526720566,7.251362249,63.75696197,-17.33555541,0.75819307,0.306958676,-0.601304059
47:49.0,17.21284174,-11.3618854,0.804475803,35.14890336,-17.45985243,0.763629362,0.309159589,-0.605615447
47:49.0,20.03335456,-9.75016379,0.4015454,44.81923303,-17.4804631,0.764530796,0.30952454,-0.606330352
47:49.1,12.3776769,-10.15309419,1.610336608,66.98040519,-17.48353075,0.764664964,0.309578858,-0.606436757
47:49.1,13.58646811,-10.5560246,2.819127817,59.72765794,-17.42314817,0.762024053,0.308509671,-0.604342316
47:49.1,11.5718161,-12.97360701,-2.821897824,55.69835391,-17.42926444,0.762291556,0.308617971,-0.604554466
47:49.1,2.304416828,-17.00291104,-4.433619436,61.74230996,-17.51308484,0.765957551,0.310102169,-0.607461875
47:49.1,23.65972818,-12.97360701,-2.821897824,63.35403157,-17.57292781,0.768574861,0.311161801,-0.609537599
47:49.1,40.98573551,-9.75016379,-0.001385003,77.05366527,-17.63908742,0.771468438,0.312333282,-0.611832423
47:49.1,28.09196262,-12.16774621,4.027919026,50.05732827,-17.6725444,0.772931722,0.312925701,-0.612992917
47:49.1,25.6743802,-12.97360701,0.804475803,49.65439787,-17.65852996,0.772318782,0.312677549,-0.61250681
47:49.1,38.9710835,-11.3618854,-0.404315406,70.20384842,-17.63763871,0.771405076,0.31230763,-0.611782172
47:49.1,18.82456335,-10.958955,1.207406206,60.93644915,-17.59606542,0.769586814,0.311571497,-0.610340154
47:49.1,-2.530748007,-8.944302984,5.236710235,51.26611948,-17.53364445,0.766856752,0.310466216,-0.608175009
47:49.1,0.289764814,-6.929650969,6.848431847,48.44560666,-17.45320213,0.763338503,0.309041833,-0.605384773
47:49.1,-2.530748007,-8.944302984,5.236710235,51.26611948,-17.34201592,0.758475629,0.307073071,-0.601528149
47:49.1,-2.530748007,-8.944302984,5.236710235,51.26611948,-17.19970666,0.752251548,0.304553218,-0.596591986
47:49.1,-2.530748007,-8.944302984,5.236710235,51.26611948,-17.09599482,0.747715576,0.302716804,-0.592994619
47:49.1,-2.530748007,-8.944302984,5.236710235,51.26611948,-17.03439892,0.745021599,0.301626133,-0.590858093
47:49.1,-2.530748007,-8.944302984,5.236710235,51.26611948,-16.98064112,0.742670432,0.30067425,-0.588993441
47:49.1,-2.127817604,-4.914998955,5.236710235,55.29542351,-16.95275543,0.741450815,0.300180481,-0.588026193
47:49.1,7.542512067,-4.914998955,8.057223055,62.95110117,-16.90691446,0.7394459,0.29936878,-0.586436145
47:49.1,22.04800657,-4.914998955,8.863083861,68.1891964,-16.83943124,0.736494434,0.298173863,-0.58409541
47:49.1,20.43628496,-5.317929358,10.87773588,46.43095465,-16.78719681,0.734209893,0.297248954,-0.582283598
47:49.1,19.63042415,-9.75016379,12.89238789,41.59578981,-16.74043129,0.732164543,0.296420882,-0.580661481
47:49.1,27.68903221,-11.3618854,9.668944667,62.95110117,-16.67802633,0.72943518,0.295315884,-0.578496892
47:49.1,14.79525932,-12.16774621,9.266014264,58.92179714,-16.60241843,0.72612837,0.293977104,-0.575874343
47:49.1,8.348372872,-16.59998064,6.445501444,56.50421472,-16.51681389,0.722384344,0.292461314,-0.572905049
47:49.1,13.58646811,-14.58532863,4.027919026,43.61044182,-16.41655662,0.717999462,0.290686071,-0.569427509
47:49.1,7.139581664,-14.18239822,3.22205822,28.29908651,-16.32271919,0.71389536,0.289024502,-0.566172647
47:49.1,-5.75419123,-16.19705024,1.610336608,54.4895627,-16.23582731,0.710095031,0.287485918,-0.563158701
47:49.1,2.707347231,-14.18239822,4.833779832,57.71300593,-16.14162851,0.705975124,0.28581795,-0.559891305
47:49.2,12.78060731,-11.3618854,6.445501444,54.0866323,-16.04465723,0.701733959,0.284100891,-0.556527742
47:49.2,8.751303275,-12.16774621,3.624988623,57.71300593,-15.94547735,0.697396197,0.282344724,-0.553087572
47:49.2,14.79525932,-15.39118943,1.207406206,42.80458102,-15.84275606,0.692903548,0.28052585,-0.549524564
47:49.2,7.139581664,-11.3618854,2.013267011,24.67271289,-15.73949683,0.688387372,0.278697451,-0.545942896
47:49.2,17.61577214,-10.958955,2.416197414,21.85220007,-15.63561558,0.68384399,0.276858038,-0.542339653
47:49.2,22.45093698,-12.16774621,2.819127817,31.92546014,-15.52710582,0.679098175,0.274936668,-0.538575865
47:49.2,6.333720858,-9.75016379,8.460153458,23.06099128,-15.41428909,0.674163988,0.272939035,-0.534662685
47:49.2,1.901486426,-13.77946782,5.236710235,18.62875684,-15.29911476,0.669126689,0.270899657,-0.530667728
47:49.2,-7.365912842,-14.98825903,-0.001385003,29.91080812,-15.18083822,0.66395371,0.268805348,-0.526565168
47:49.2,-3.336608813,-12.97360701,4.833779832,38.37234659,-15.07990649,0.65953933,0.267018161,-0.523064232
47:49.2,-8.171773648,-14.98825903,12.89238789,51.26611948,-14.99856159,0.655981605,0.265577796,-0.520242689
47:49.2,4.319068843,-18.21170225,15.71290071,56.90714512,-14.92673137,0.652840017,0.264305907,-0.517751174
47:49.2,35.34470987,-12.57067661,10.87773588,68.1891964,-14.87036376,0.650374706,0.263307812,-0.515795997
47:49.2,20.03335456,-1.691555731,7.251362249,41.59578981,-14.8184571,0.648104501,0.262388707,-0.513995554
47:49.2,35.34470987,-12.57067661,10.87773588,68.1891964,-14.77054681,0.646009082,0.261540365,-0.512333729
47:49.2,35.34470987,-12.57067661,10.87773588,68.1891964,-14.73756129,0.644566417,0.260956294,-0.511189588
47:49.2,35.34470987,-12.57067661,10.87773588,68.1891964,-14.7175455,0.643691001,0.260601877,-0.510495317
47:49.2,35.34470987,-12.57067661,10.87773588,68.1891964,-14.69621772,0.642758202,0.260224228,-0.509755537
47:49.2,35.34470987,-12.57067661,10.87773588,68.1891964,-14.6740395,0.641788209,0.259831521,-0.50898626
47:49.2,3.110277634,3.143609104,4.027919026,40.3869986,-14.65690469,0.641038796,0.259528117,-0.508391919
47:49.2,5.124929649,3.94946991,0.804475803,37.56648578,-14.64158385,0.640368719,0.259256833,-0.507860498
47:49.2,-10.18642566,1.934817895,0.4015454,17.82289604,-14.63977851,0.64028976,0.259224866,-0.507797877
47:49.2,-10.58935606,3.546539507,0.4015454,18.22582644,-14.65252709,0.640847336,0.259450604,-0.508240077
47:49.2,-7.768843245,4.352400313,-1.210176212,2.914471128,-14.67159209,0.641681168,0.259788185,-0.508901369
47:49.2,-1.724887201,6.367052327,-3.224828227,19.43461765,-14.69985434,0.642917255,0.260288622,-0.509881678
47:49.2,7.945442469,11.20221716,-2.821897824,10.57014878,-14.70294272,0.643052329,0.260343307,-0.509988802
47:49.2,8.348372872,11.60514757,-5.239480241,-25.29065708,-14.67669762,0.641904465,0.259878588,-0.50907846
47:49.2,19.63042415,9.187565148,-11.68636669,-2.726554513,-14.63950615,0.640277848,0.259220043,-0.50778843
47:49.2,23.65972818,6.367052327,-10.47757548,27.49322571,-14.5813719,0.637735271,0.258190667,-0.505771976
47:49.3,-0.919026395,3.94946991,-8.462923465,13.3906616,-14.52043013,0.635069903,0.257111578,-0.503658139
47:49.3,-27.51243299,3.94946991,-10.07464508,0.899819113,-14.45781681,0.632331428,0.256002891,-0.501486323
47:49.3,-39.19741467,2.740678701,-11.68636669,4.52619274,-14.37546251,0.628729556,0.254544653,-0.498629767
47:49.3,-27.10950258,1.128957089,-11.68636669,44.01337223,-14.27678658,0.624413835,0.25279741,-0.495207077
47:49.3,-10.99228647,0.726026686,-12.49222749,35.55183377,-14.19000705,0.62061842,0.251260815,-0.492197027
47:49.3,11.5718161,3.143609104,-8.865853868,23.86685208,-14.11495816,0.617336059,0.249931933,-0.489593868
47:49.3,21.24214577,3.143609104,-7.254132256,21.04633926,-14.04002455,0.61405874,0.248605092,-0.486994708
47:49.3,18.01870254,1.934817895,-10.07464508,1.302749516,-13.97199516,0.611083387,0.247400503,-0.484635029
47:49.3,15.19818972,0.323096284,-9.268784271,28.70201692,-13.88921665,0.60746296,0.245934754,-0.481763759
47:49.3,31.71833624,-0.885694925,-8.462923465,36.35769457,-13.79006369,0.603126377,0.244179064,-0.478324523
47:49.3,25.2714498,5.158261119,-6.045341047,12.1818704,-13.69073564,0.598782135,0.242420273,-0.474879213
47:49.3,-0.516095992,6.367052327,-6.44827145,13.3906616,-13.58620639,0.594210412,0.240569386,-0.471253493
47:49.3,-6.962982439,2.740678701,-9.268784271,38.37234659,-13.4967399,0.590297479,0.238985213,-0.468150243
47:49.3,26.480241,-1.288625328,-5.642410644,18.22582644,-13.42602837,0.587204818,0.237733132,-0.465697531
47:49.3,-18.64796412,1.934817895,-7.657062659,42.40165062,-13.36084065,0.584353749,0.236578861,-0.463436419
47:49.3,3.513208037,-0.482764522,-5.239480241,25.07564329,-13.30737825,0.582015501,0.235632208,-0.461582012
47:49.3,3.513208037,-0.482764522,-5.239480241,25.07564329,-13.25763581,0.579839951,0.234751425,-0.459856638
47:49.3,3.513208037,-0.482764522,-5.239480241,25.07564329,-13.21078166,0.577790723,0.233921784,-0.458231446
47:49.3,3.513208037,-0.482764522,-5.239480241,25.07564329,-13.17646029,0.576289634,0.233314059,-0.45704097
47:49.3,3.513208037,-0.482764522,-5.239480241,25.07564329,-13.15322799,0.575273539,0.232902688,-0.45623513
47:49.3,3.513208037,-0.482764522,-5.239480241,25.07564329,-13.12028647,0.573832799,0.232319396,-0.455092515
47:49.3,12.78060731,2.740678701,-6.44827145,33.94011215,-13.07734083,0.571954515,0.231558962,-0.453602895
47:49.3,5.124929649,4.352400313,-0.807245809,27.89615611,-13.03366486,0.57004429,0.230785597,-0.452087943
47:49.3,19.63042415,0.726026686,-0.404315406,7.34670556,-12.98413971,0.567878243,0.229908661,-0.450370105
47:49.3,24.06265859,-2.094486134,-4.433619436,11.77893999,-12.9436467,0.566107228,0.229191656,-0.448965557
47:49.3,17.61577214,-0.885694925,-0.807245809,17.41996563,-12.91338804,0.564783827,0.228655869,-0.447916
47:49.3,1.901486426,-0.079834119,2.013267011,22.65806087,-12.88181894,0.563403111,0.228096879,-0.446820989
47:49.3,-5.351260827,-5.317929358,-0.001385003,44.41630263,-12.852379,0.562115517,0.227575589,-0.44579983
47:49.3,6.736651261,-7.735511775,-0.807245809,48.04267626,-12.79066215,0.55941625,0.226482776,-0.443659109
47:49.4,16.80991133,-5.317929358,-2.821897824,31.52252974,-12.6919029,0.555096886,0.224734058,-0.440233529
47:49.4,22.04800657,-4.512068552,-3.62775863,29.91080812,-12.57470804,0.549971216,0.222658902,-0.436168488
47:49.4,9.960094484,-5.72085976,-2.016037018,33.94011215,-12.4287741,0.543588606,0.220074866,-0.431106598
47:49.4,1.901486426,-9.347233387,-2.821897824,37.16355538,-12.2711866,0.536696311,0.217284483,-0.42564049
47:49.4,1.498556023,-10.5560246,-1.613106615,37.56648578,-12.10283213,0.529333109,0.21430345,-0.419800919
47:49.4,5.527860052,-3.303277343,4.430849429,31.92546014,-11.90569948,0.520711257,0.210812845,-0.412963141
47:49.4,9.557164081,-0.885694925,2.819127817,17.41996563,-11.68276293,0.510960837,0.206865333,-0.405230326
47:49.4,-2.127817604,-5.72085976,-4.030689033,17.01703523,-11.46327466,0.501361231,0.202978879,-0.397617118
47:49.4,-3.336608813,-6.929650969,-3.62775863,31.11959933,-11.24692637,0.491898957,0.199148025,-0.390112824
47:49.4,16.00405053,-6.123790163,-3.62775863,31.92546014,-11.02107349,0.482020988,0.195148874,-0.382278852
47:49.4,25.6743802,-3.706207746,-1.210176212,37.56648578,-10.7925876,0.47202786,0.191103101,-0.374353551
47:49.4,18.82456335,-5.72085976,0.804475803,23.86685208,-10.53887055,0.460931215,0.186610563,-0.365553078
47:49.4,16.40698093,-8.138442178,-0.807245809,16.61410483,-10.2579514,0.44864485,0.18163636,-0.355809068
47:49.4,7.542512067,-6.123790163,-2.016037018,31.52252974,-9.966394172,0.435893216,0.17647379,-0.345696064
47:49.4,-5.351260827,-9.347233387,-2.821897824,29.50787772,-9.658751738,0.422438074,0.171026401,-0.335025125
47:49.4,15.19818972,-9.75016379,-0.404315406,8.958427172,-9.355166742,0.409160389,0.165650856,-0.324494924
47:49.4,15.19818972,-6.929650969,0.804475803,10.97307919,-9.059165262,0.396214379,0.160409592,-0.314227766
47:49.4,-9.380564857,-7.735511775,0.4015454,26.2844345,-8.757079441,0.383002263,0.155060593,-0.303749565
47:49.4,15.19818972,-6.929650969,0.804475803,10.97307919,-8.454917651,0.369786824,0.14971025,-0.293268729
47:49.4,15.19818972,-6.929650969,0.804475803,10.97307919,-8.144474865,0.356209204,0.144213275,-0.282500657
47:49.4,15.19818972,-6.929650969,0.804475803,10.97307919,-7.824658448,0.342221617,0.138550323,-0.27140745
47:49.4,15.19818972,-6.929650969,0.804475803,10.97307919,-7.504893702,0.32823629,0.132888285,-0.260316035
47:49.4,15.19818972,-6.929650969,0.804475803,10.97307919,-7.183500566,0.314179743,0.127197414,-0.249168137
47:49.4,-22.27433775,-7.332581372,2.013267011,25.07564329,-6.839024418,0.299113631,0.121097815,-0.237219578
47:49.4,-15.0215905,-7.735511775,-1.210176212,18.22582644,-6.470894462,0.283012988,0.11457938,-0.224450559
47:49.4,2.707347231,-6.929650969,-0.404315406,5.734983949,-6.088342283,0.266281571,0.107805573,-0.211181288
47:49.4,3.110277634,-5.317929358,0.4015454,-3.935345722,-5.6858922,0.248679893,0.100679436,-0.197221836
47:49.4,1.498556023,-10.15309419,-1.613106615,21.04633926,-5.278421152,0.230858616,0.093464393,-0.183088225
47:49.4,7.542512067,-8.541372581,-0.807245809,27.0902953,-4.866902858,0.212860328,0.086177686,-0.16881423
47:49.4,1.498556023,-3.706207746,0.4015454,19.43461765,-4.439330265,0.194159885,0.078606708,-0.153983374
47:49.5,12.3776769,-4.914998955,1.610336608,15.80824402,-3.998947416,0.174899168,0.0708089,-0.138708178
47:49.5,17.21284174,-5.72085976,1.610336608,25.07564329,-3.669969343,0.160510895,0.064983733,-0.127297492
47:49.5,-2.93367841,-6.123790163,3.22205822,37.96941618,-3.463705856,0.151489718,0.06133147,-0.12014364
47:49.5,-10.99228647,-8.138442178,2.416197414,27.0902953,-3.32429345,0.145392366,0.058862938,-0.11530879
47:49.5,2.707347231,-7.735511775,5.236710235,13.79359201,-3.287453158,0.14378115,0.058210647,-0.114032055
47:49.5,-0.919026395,-6.526720566,10.07187507,6.540844754,-3.279076796,0.143414846,0.058062367,-0.113742733
47:49.5,-29.527085,-9.75016379,6.445501444,-5.144136931,-3.296746568,0.144187706,0.058375287,-0.114356953
47:49.5,-15.0215905,-11.3618854,1.610336608,1.705679919,-3.410097648,0.149145323,0.060382433,-0.118290262
47:49.5,-9.380564857,-10.5560246,4.027919026,17.01703523,-3.605757115,0.157702814,0.063847012,-0.125078773
47:49.5,-2.530748007,-8.541372581,7.251362249,19.83754805,-3.798939203,0.166151954,0.067267725,-0.131781375
47:49.5,5.124929649,-6.526720566,6.445501444,21.04633926,-3.992727612,0.174627614,0.070699175,-0.138505036
47:49.5,11.16888569,-6.526720566,6.042571041,34.34304256,-4.220829512,0.184604023,0.074738214,-0.146419018
47:49.5,25.2714498,-4.512068552,6.445501444,29.91080812,-4.464055643,0.195241913,0.079045058,-0.15485767
47:49.5,11.16888569,-5.72085976,8.460153458,29.10494732,-4.793311544,0.209642435,0.08487523,-0.166280614
47:49.5,9.557164081,-8.944302984,9.266014264,31.11959933,-5.214556006,0.228066208,0.092334241,-0.180894552
47:49.5,9.557164081,-9.347233387,7.251362249,29.50787772,-5.678078065,0.248339051,0.10054186,-0.196975075
47:49.5,3.91613844,-6.526720566,8.460153458,32.32839054,-6.201182382,0.271217808,0.109804502,-0.215122459
47:49.5,5.527860052,-7.332581372,7.251362249,22.65806087,-6.694995082,0.292815458,0.11854848,-0.232253803
47:49.5,-1.724887201,-10.958955,4.833779832,26.2844345,-7.14655614,0.312565175,0.12654431,-0.24791954
47:49.5,5.527860052,-7.332581372,7.251362249,22.65806087,-7.611268969,0.332890104,0.134773021,-0.264041537
47:49.5,5.527860052,-7.332581372,7.251362249,22.65806087,-8.063290765,0.352659976,0.142777012,-0.279723345
47:49.5,5.527860052,-7.332581372,7.251362249,22.65806087,-8.544004088,0.373684712,0.151289045,-0.296400461
47:49.5,5.527860052,-7.332581372,7.251362249,22.65806087,-9.057887043,0.39616017,0.160388413,-0.314228225
47:49.5,5.527860052,-7.332581372,7.251362249,22.65806087,-9.56149004,0.418186022,0.169305756,-0.331699437
47:49.5,-5.75419123,-5.317929358,10.07187507,30.31373853,-10.06332354,0.440134484,0.178191767,-0.349109312
47:49.5,11.5718161,-2.497416537,10.47480547,1.705679919,-10.64806423,0.465709009,0.188545814,-0.369395164
47:49.5,6.736651261,-6.123790163,0.804475803,-7.158788945,-11.31728995,0.494978606,0.200395836,-0.392611725
47:49.5,-8.574704051,-7.332581372,0.4015454,23.86685208,-12.03586215,0.526406441,0.213119636,-0.417540091
47:49.6,-15.4245209,-6.526720566,4.430849429,41.59578981,-12.82522709,0.560930498,0.227096962,-0.444924202
47:49.6,-2.127817604,-8.138442178,3.22205822,51.26611948,-13.62495827,0.595907938,0.241257844,-0.47266795
47:49.6,3.513208037,-10.958955,-0.001385003,26.2844345,-14.43127535,0.631173424,0.255535343,-0.5006402
47:49.6,-6.560052036,-10.5560246,-3.224828227,5.332053546,-15.29223476,0.668828769,0.270780394,-0.530507963
47:49.6,2.707347231,-12.97360701,-5.642410644,11.77893999,-16.19464965,0.70829723,0.286759497,-0.561813806
47:49.6,1.09562562,-12.97360701,-2.821897824,7.34670556,-16.91343824,0.739734856,0.299487138,-0.586756709
47:49.6,-7.768843245,-12.57067661,-1.210176212,-8.367580154,-17.4312289,0.762381906,0.308655717,-0.60473477
47:49.6,-10.18642566,-12.57067661,-4.836549838,-10.78516257,-17.84423117,0.780446092,0.315968815,-0.619082209
47:49.6,-6.962982439,-10.5560246,-6.045341047,15.80824402,-18.08864538,0.791137139,0.320296731,-0.627587871
47:49.6,11.16888569,-12.16774621,-4.433619436,22.65806087,-18.3054009,0.800618608,0.324134898,-0.635136537
47:49.6,15.60112013,-11.7648158,-2.821897824,15.00238322,-18.49882709,0.809079844,0.327559975,-0.641878256
47:49.6,-6.560052036,-14.18239822,-2.016037018,12.5848008,-18.5405749,0.810907496,0.32829929,-0.643364515
47:49.6,-21.06554654,-18.61463265,-5.642410644,9.361357575,-18.45653141,0.807233742,0.326811226,-0.640492619
47:49.6,-23.08019856,-18.21170225,-7.657062659,0.899819113,-18.3913163,0.804383496,0.325656556,-0.638274383
47:49.6,-33.95931943,-18.21170225,-4.836549838,-1.517763304,-18.33874675,0.802086354,0.324725803,-0.636495488
47:49.6,-22.67726815,-17.80877185,-1.210176212,-0.711902498,-18.24353067,0.79792413,0.323039911,-0.633239912
47:49.6,-14.61866009,-17.80877185,-2.418967421,1.302749516,-18.13824117,0.793321404,0.321175651,-0.629636474
47:49.6,-22.27433775,-15.79411983,-4.030689033,9.764287978,-17.89938044,0.782877013,0.316946252,-0.621405195
47:49.6,-13.40986889,-14.98825903,-4.433619436,-0.308972095,-17.51700731,0.766156182,0.310175687,-0.608201578
47:49.6,-15.8274513,-17.40584145,-5.239480241,-11.18809297,-17.07706423,0.746917594,0.302385734,-0.593004038
47:49.6,0.289764814,-13.77946782,-1.613106615,-7.561719348,-16.54955578,0.723849402,0.293045267,-0.574773056
47:49.6,9.154233678,-13.37653742,-4.030689033,-9.17344096,-16.10578974,0.704443775,0.285187625,-0.559446437
47:49.6,0.289764814,-13.77946782,-1.613106615,-7.561719348,-15.76996151,0.689758901,0.279241236,-0.547862795
47:49.6,0.289764814,-13.77946782,-1.613106615,-7.561719348,-15.43801153,0.675243726,0.27336352,-0.536415397
47:49.6,0.289764814,-13.77946782,-1.613106615,-7.561719348,-15.1597406,0.663076297,0.2684363,-0.52683042
47:49.6,0.289764814,-13.77946782,-1.613106615,-7.561719348,-14.85369587,0.649694257,0.263017291,-0.516284498
47:49.6,0.289764814,-13.77946782,-1.613106615,-7.561719348,-14.5117961,0.634744175,0.256963401,-0.504497552
47:49.6,-21.87140735,-18.21170225,-4.030689033,5.734983949,-14.21880322,0.621933126,0.251775505,-0.494407619
47:49.6,-19.85675533,-17.40584145,-1.613106615,12.9877312,-13.95825705,0.610541223,0.247162144,-0.485444162
47:49.7,13.98939851,-15.79411983,-1.613106615,27.0902953,-13.57189155,0.593646691,0.240320907,-0.472121677
47:49.7,30.50954503,-15.79411983,-0.404315406,26.6873649,-13.05745233,0.571150935,0.231211875,-0.454362064
47:49.7,-8.574704051,-13.77946782,-2.418967421,13.79359201,-12.48053697,0.545922871,0.220996583,-0.434438938
47:49.7,-13.00693848,-11.7648158,-3.62775863,25.8815041,-11.80142372,0.516225266,0.208971679,-0.410975562
47:49.7,15.60112013,-10.958955,-3.62775863,31.11959933,-11.13452431,0.487061927,0.197163046,-0.387937528
47:49.7,17.61577214,-7.735511775,-2.821897824,27.49322571,-10.48727253,0.458757973,0.185702316,-0.365582515
47:49.7,3.513208037,-5.72085976,-0.001385003,7.34670556,-9.769692703,0.427378311,0.172996291,-0.340791955
47:49.7,-0.113165589,-7.735511775,-0.404315406,-9.17344096,-9.007055459,0.394028156,0.159492439,-0.314441765
47:49.7,-2.530748007,-10.5560246,-0.807245809,0.496888711,-8.379165654,0.366589065,0.148375137,-0.29314821
47:49.7,20.83921536,-6.123790163,2.416197414,21.04633926,-7.894026136,0.345412872,0.139786151,-0.277228237
47:49.7,30.50954503,1.128957089,6.042571041,21.04633926,-7.485164149,0.327584081,0.132548179,-0.264198355
47:49.7,-13.81279929,-4.109138149,4.430849429,17.82289604,-7.201941888,0.315266729,0.127535444,-0.255881412
47:49.7,-19.05089453,-9.347233387,1.207406206,12.9877312,-6.919241295,0.302978602,0.122532155,-0.247721022
47:49.7,-4.142469618,-8.138442178,0.804475803,20.24047845,-6.634043544,0.290587328,0.117484845,-0.239605197
47:49.7,-1.321956798,-9.75016379,-0.807245809,38.77527699,-6.453271198,0.28277901,0.11428711,-0.235452432
47:49.7,2.707347231,-10.15309419,-2.418967421,40.3869986,-6.353353813,0.278520994,0.11252153,-0.234406906
47:49.7,6.333720858,-10.15309419,-2.418967421,11.77893999,-6.237352187,0.273560895,0.11047119,-0.232833347
47:49.7,6.736651261,-9.75016379,0.804475803,-15.62032741,-6.111723309,0.268181519,0.108250437,-0.230964375
47:49.7,-2.127817604,-10.958955,-1.613106615,-5.144136931,-6.009351225,0.263826275,0.106441718,-0.230052608
47:49.7,-8.171773648,-11.3618854,-1.613106615,8.152566366,-5.90900486,0.259563729,0.104669001,-0.229299732
47:49.7,10.76595529,-8.944302984,4.833779832,-1.920693707,-5.89949533,0.259288541,0.104505204,-0.23201082
47:49.7,27.28610181,-9.347233387,2.013267011,-13.20274499,-5.987384053,0.263288591,0.106066539,-0.238433117
47:49.7,7.542512067,-10.5560246,-2.821897824,9.764287978,-6.112777788,0.268937054,0.108292238,-0.246330981
47:49.7,-2.93367841,-10.5560246,-1.210176212,16.21117443,-6.297209624,0.277178257,0.11156367,-0.256506434
47:49.7,7.542512067,-10.5560246,-2.821897824,9.764287978,-6.384964437,0.281189819,0.113123197,-0.263299378
47:49.7,7.542512067,-10.5560246,-2.821897824,9.764287978,-6.355782936,0.280083882,0.112612028,-0.265968379
47:49.7,7.542512067,-10.5560246,-2.821897824,9.764287978,-6.299814219,0.277810883,0.111626684,-0.267805705
47:49.7,7.542512067,-10.5560246,-2.821897824,9.764287978,-6.172058694,0.272399228,0.109370244,-0.267175271
47:49.7,7.542512067,-10.5560246,-2.821897824,9.764287978,-6.050138234,0.26724929,0.107217336,-0.266887992
47:49.7,-14.21572969,-12.97360701,-1.613106615,12.5848008,-5.94075394,0.262654796,0.105286638,-0.267190237
47:49.7,-15.0215905,-12.57067661,0.804475803,1.302749516,-5.765190963,0.25516726,0.102184157,-0.265226518
47:49.7,7.542512067,-13.77946782,-0.001385003,4.123262337,-5.538890153,0.245463158,0.098183342,-0.261557289
47:49.7,8.348372872,-11.3618854,-0.807245809,27.49322571,-5.397288986,0.239477765,0.095682768,-0.26113417
47:49.7,-7.768843245,-5.317929358,-1.613106615,20.64340886,-5.341344873,0.237253224,0.094699395,-0.263996179
47:49.7,-10.58935606,-4.109138149,0.4015454,16.21117443,-5.315559256,0.236357364,0.094250354,-0.268113041
47:49.7,-20.25968574,-7.735511775,1.207406206,-5.144136931,-5.353498012,0.238261235,0.094930091,-0.274713905
47:49.7,-25.09485057,-10.5560246,-3.224828227,-19.24670103,-5.355070941,0.238578985,0.09496604,-0.28014814
47:49.7,-16.63331211,-10.5560246,-4.030689033,-5.144136931,-5.313582968,0.237017303,0.094239635,-0.284172828
47:49.7,-0.919026395,-10.958955,-2.821897824,6.540844754,-5.306472894,0.236969732,0.094122302,-0.289617919
47:49.7,16.40698093,-8.138442178,-1.210176212,12.5848008,-5.311338357,0.237454693,0.094217305,-0.295667839
47:49.7,2.707347231,-7.332581372,-0.001385003,3.317401531,-5.296600231,0.236898186,0.093979292,-0.297177015
47:49.8,5.124929649,-10.15309419,-1.613106615,15.40531362,-5.267663064,0.235517566,0.093505412,-0.293933951
47:49.8,6.333720858,-10.15309419,0.4015454,29.91080812,-5.223366742,0.23335104,0.092768624,-0.287765768
47:49.8,-15.0215905,-9.75016379,1.207406206,12.9877312,-5.156778353,0.230039476,0.091650202,-0.27725785
47:49.8,-19.85675533,-8.541372581,0.804475803,12.9877312,-5.104603492,0.227300293,0.090792242,-0.266037813
47:49.8,-14.21572969,-5.317929358,2.013267011,18.22582644,-5.066589178,0.225126169,0.090189998,-0.254175459
47:49.8,1.09562562,-2.094486134,4.833779832,-3.532415319,-5.018521707,0.222350896,0.089422348,-0.238579389
47:49.8,11.16888569,-1.691555731,6.042571041,-3.532415319,-4.967750089,0.219315879,0.088618037,-0.21992454
47:49.8,10.36302489,-3.706207746,0.4015454,10.16721838,-4.908908543,0.215922403,0.087672072,-0.200878961
47:49.8,9.557164081,-2.094486134,4.833779832,5.734983949,-4.838826863,0.212027288,0.086528633,-0.181237563
47:49.8,13.98939851,-0.482764522,8.460153458,-14.00860579,-4.764944973,0.207900814,0.085323565,-0.160101819
47:49.8,-0.919026395,-5.317929358,6.848431847,-18.03790982,-4.685052294,0.203477136,0.084015462,-0.138042337
47:49.8,-26.70657218,-7.735511775,6.042571041,6.137914352,-4.595048253,0.198464361,0.082539919,-0.112553968
47:49.8,-20.25968574,-4.109138149,11.68359668,26.6873649,-4.495192826,0.192864182,0.08090226,-0.083442606
47:49.8,-30.73587621,-2.094486134,18.93634393,-12.39688418,-4.385334454,0.186749147,0.079094021,-0.052365255
47:49.8,-20.25968574,-4.109138149,11.68359668,26.6873649,-4.264352947,0.180042714,0.077097383,-0.018704732
47:49.8,-20.25968574,-4.109138149,11.68359668,26.6873649,-4.183084273,0.175102633,0.075803113,0.012952068
47:49.8,-20.25968574,-4.109138149,11.68359668,26.6873649,-4.146091585,0.172148383,0.075290607,0.042028757
47:49.8,-20.25968574,-4.109138149,11.68359668,26.6873649,-4.128364203,0.170001181,0.075123007,0.071176554
47:49.8,-20.25968574,-4.109138149,11.68359668,26.6873649,-4.144150186,0.169323253,0.075549877,0.099080308
47:49.8,-37.18276266,-0.079834119,14.9070399,-32.14047393,-4.163918014,0.168761081,0.076052589,0.128065665
47:49.8,-27.91536339,4.755330716,14.9070399,-21.26135305,-4.185942624,0.168232205,0.076601107,0.15833971
47:49.8,-40.40620588,3.94946991,23.77150877,-30.52875231,-4.237612961,0.168999796,0.077675877,0.18758051
47:49.8,-48.86774434,6.76998273,24.98029998,-50.67527246,-4.313129218,0.170797325,0.079175103,0.216259568
47:49.8,-59.34393482,7.172913133,23.77150877,-82.50677429,-4.376851332,0.171935905,0.080476929,0.248346636
47:49.8,-72.64063812,-0.482764522,28.6066736,-90.16245195,-4.429412692,0.172440508,0.081592787,0.283876917
47:49.8,-91.57836705,-1.288625328,30.21839522,-78.47747026,-4.48438206,0.17295859,0.082759115,0.321245211
47:49.8,-116.1571216,1.531887492,31.02425602,-100.235712,-4.533245111,0.173084646,0.08382751,0.361442509
47:49.8,-141.1388066,5.158261119,33.84476884,-127.6349794,-4.604438684,0.174154625,0.08529501,0.401544787
47:49.8,-164.50877,7.575843536,37.47114247,-155.8401076,-4.699872195,0.176257678,0.08719504,0.44136725
47:49.9,-170.1497956,8.784634745,39.88872489,-176.7924886,-4.79857016,0.17840262,0.089161416,0.48318766
47:49.9,-174.5820301,9.590495551,39.88872489,-174.3749062,-4.907054111,0.180894668,0.091308217,0.526359785
47:49.9,-180.2230557,9.590495551,38.67993368,-184.8510966,-4.974446597,0.182551453,0.092571563,0.551260821
47:49.9,-175.3878909,16.037382,40.29165529,-207.0122688,-4.993429443,0.183151186,0.092805746,0.556133345
47:49.9,-181.0289165,17.24617321,35.05356005,-199.3565911,-4.992630081,0.183471994,0.092592928,0.549697561
47:49.9,-180.2230557,14.42566039,31.83011683,-164.7045765,-4.956838266,0.183149582,0.091616508,0.526310193
47:49.9,-152.8237883,22.48426844,28.2037432,-159.4664813,-4.910396707,0.182633102,0.090402131,0.497759858
47:49.9,-143.556389,22.88719885,23.36857837,-141.7375435,-4.85483623,0.181969262,0.088980067,0.464408657
47:49.9,-115.7541912,24.09599006,26.59202159,-113.1294849,-4.764089114,0.180600592,0.086798169,0.415208404
47:49.9,-85.53441101,27.31943328,21.35392635,-125.217397,-4.642479438,0.178605685,0.083949871,0.352278302
47:49.9,-77.47580295,23.69305965,7.654292652,-102.250364,-4.534179138,0.17719436,0.081332384,0.288883144
47:49.9,-80.69924617,18.45496441,1.610336608,-72.43351422,-4.438953345,0.176381618,0.078937732,0.224511985
47:49.9,-81.50510698,17.24617321,4.833779832,-57.12215891,-4.337712162,0.175622051,0.076381219,0.153897498
47:49.9,-62.16444764,19.26082522,5.236710235,-52.28699407,-4.240956221,0.17521133,0.073874876,0.08002748
47:49.9,-50.88239636,17.64910361,-1.613106615,-44.22838601,-4.115098174,0.174281657,0.070728769,-0.008255813
47:49.9,-29.93001541,13.61979958,-4.836549838,-18.84377063,-3.957299666,0.172759914,0.066884447,-0.111899053
47:49.9,-50.88239636,17.64910361,-1.613106615,-44.22838601,-3.792507488,0.171315042,0.062850625,-0.223115614
47:49.9,-50.88239636,17.64910361,-1.613106615,-44.22838601,-3.612724513,0.169744172,0.058462396,-0.344638858
47:49.9,-50.88239636,17.64910361,-1.613106615,-44.22838601,-3.443298044,0.168415761,0.054282013,-0.46215506
47:49.9,-50.88239636,17.64910361,-1.613106615,-44.22838601,-3.289148974,0.167436464,0.050413425,-0.573607377
47:49.9,-50.88239636,17.64910361,-1.613106615,-44.22838601,-3.132284321,0.166483025,0.046466313,-0.687886117
47:49.9,-15.4245209,8.381704342,-5.642410644,4.929123143,-2.980406605,0.165677108,0.042610048,-0.800840651
47:49.9,-15.8274513,7.978773939,-5.642410644,-3.935345722,-2.824197756,0.164954501,0.038627389,-0.919197464
47:49.9,-2.127817604,7.978773939,-1.210176212,-21.66428345,-2.662266745,0.164292142,0.034487779,-1.04368289
47:49.9,20.83921536,2.740678701,-3.62775863,-1.517763304,-2.506144057,0.163833297,0.03045048,-1.167284552
47:49.9,25.2714498,-0.885694925,-10.88050588,18.22582644,-2.353961597,0.16356713,0.026471554,-1.29139234
47:49.9,16.40698093,-2.094486134,-11.28343629,35.95476417,-2.177222021,0.162956802,0.021936478,-1.429575455
47:49.9,19.22749375,-1.288625328,-10.47757548,57.31007552,-1.975099648,0.161980033,0.016828319,-1.582088084
47:49.9,25.6743802,-2.497416537,-10.07464508,48.44560666,-1.76014327,0.160891194,0.0114149,-1.7433238
47:50.0,36.95643148,-6.123790163,-10.88050588,29.91080812,-1.525087493,0.159552551,0.005539591,-1.916723788
47:50.0,51.46192599,-4.512068552,-9.671714674,35.14890336,-1.289476487,0.158313842,-0.000373656,-2.092601512
47:50.0,51.05899558,-1.288625328,-8.059993062,61.33937955,-1.054663178,0.157202897,-0.006296123,-2.270360314
47:50.0,54.68536921,-4.109138149,-6.851201853,77.05366527,-0.804836633,0.155930766,-0.01257011,-2.45771146
47:50.0,58.71467324,-8.944302984,-3.62775863,56.50421472,-0.544293559,0.154575429,-0.019102658,-2.652547331
47:50.0,56.70002122,-6.929650969,-3.62775863,38.37234659,-0.253637046,0.147368464,-0.025543902,-2.752846962
47:50.0,47.83555236,-6.929650969,-5.239480241,31.52252974,0.071055361,0.133680753,-0.031899589,-2.749044518
47:50.0,28.89782342,-8.541372581,-5.239480241,35.95476417,0.417785759,0.116262005,-0.038269953,-2.687392958
47:50.0,43.80624833,-6.929650969,-2.016037018,47.63974585,0.792804042,0.093420632,-0.044566093,-2.538459606
47:50.0,47.43262196,-8.944302984,-1.613106615,45.62509384,1.188963582,0.068386322,-0.051074097,-2.362572854
47:50.0,36.15057068,-14.18239822,-6.851201853,44.41630263,1.605905484,0.041269746,-0.057801111,-2.161700784
47:50.0,55.08829961,-14.58532863,-4.030689033,75.03901325,2.053144254,0.008901206,-0.064527206,-1.878795045
47:50.0,57.90881243,-10.5560246,-2.016037018,87.12692534,2.529735728,-0.028153567,-0.071310045,-1.524688441
47:50.0,51.86485639,-8.944302984,-3.224828227,51.66904988,3.016038515,-0.065648391,-0.078277379,-1.169843955
47:50.0,59.11760364,-11.7648158,-2.016037018,45.62509384,3.512146959,-0.1037083,-0.085413831,-0.81176779
47:50.0,69.19086372,-11.3618854,-1.613106615,48.44560666,4.027433794,-0.144097307,-0.092695893,-0.422234366
47:50.0,45.41796994,-13.77946782,-2.016037018,52.07198029,4.557360111,-0.185850218,-0.100150892,-0.017195855
47:50.0,24.06265859,-15.39118943,-2.821897824,62.95110117,5.116637672,-0.232436543,-0.107642244,0.462078812
47:50.0,,,,,5.706827691,-0.284163895,-0.115164169,1.020575499
47:50.0,45.41796994,-13.77946782,-2.016037018,52.07198029,6.317212467,-0.338581202,-0.122805489,1.617084474
47:50.0,45.41796994,-13.77946782,-2.016037018,52.07198029,6.951500547,-0.396541227,-0.130534964,2.265961651
47:50.0,45.41796994,-13.77946782,-2.016037018,52.07198029,7.601111185,-0.454156827,-0.138697475,2.894580315
47:50.0,45.41796994,-13.77946782,-2.016037018,52.07198029,8.264339234,-0.5108403,-0.147335374,3.492312859
47:50.0,45.41796994,-13.77946782,-2.016037018,52.07198029,8.948210542,-0.569094115,-0.156263235,4.104618563
47:50.0,48.23848276,-11.3618854,0.4015454,26.2844345,9.650237463,-0.627788639,-0.165581508,4.710386821
47:50.0,31.71833624,-18.61463265,0.4015454,16.21117443,10.37345602,-0.688689817,-0.17511277,5.34335822
47:50.0,25.2714498,-24.2556583,-1.210176212,47.23681545,11.11865389,-0.752010649,-0.18484594,6.007238814
47:50.0,42.59745712,-19.01756306,-2.418967421,61.74230996,11.88224361,-0.815879325,-0.194960355,6.666585907
47:50.0,39.3740139,-17.40584145,-0.404315406,45.22216344,12.66504302,-0.880668458,-0.205422968,7.328366103
47:50.0,50.25313478,-17.00291104,0.4015454,45.22216344,13.47831868,-0.950227955,-0.215959542,8.062120066
47:50.0,47.43262196,-17.40584145,-3.224828227,63.35403157,14.3227258,-1.024650921,-0.226572838,8.869199461
47:50.0,29.70368423,-17.00291104,-1.613106615,35.95476417,15.19357438,-1.102339728,-0.237376464,9.720760049
47:50.0,19.63042415,-11.7648158,-0.807245809,17.41996563,16.0939559,-1.184280978,-0.24830518,10.63444674
47:50.1,30.50954503,-9.347233387,-0.404315406,24.67271289,17.01676094,-1.267771774,-0.259571121,11.56074679
47:50.1,32.92712745,-8.138442178,-2.016037018,41.99872021,17.96173437,-1.352652365,-0.271190935,12.49659182
47:50.1,31.31540584,-10.5560246,-2.016037018,54.89249311,18.93518782,-1.441104038,-0.283007555,13.48144459
47:50.1,52.26778679,-13.77946782,-3.224828227,28.70201692,19.93577181,-1.532546789,-0.29507086,14.50452872
47:50.1,38.9710835,-16.19705024,-5.239480241,18.22582644,20.71601954,-1.604007937,-0.304241285,15.30426052
47:50.1,17.61577214,-13.77946782,-0.404315406,24.26978248,21.2514494,-1.653397089,-0.310180788,15.85850612
47:50.1,20.43628496,-12.97360701,-2.418967421,21.85220007,21.65702761,-1.691066835,-0.314394736,16.28221092
47:50.1,17.21284174,-18.21170225,-4.030689033,24.67271289,21.86109037,-1.710414637,-0.31596619,16.5006512
47:50.1,31.71833624,-17.80877185,-0.807245809,23.06099128,22.00715482,-1.725151914,-0.316657666,16.67351391
47:50.1,11.9747465,-13.77946782,-2.821897824,35.95476417,22.1002701,-1.735734538,-0.31653468,16.80586954
47:50.1,16.40698093,-13.77946782,-0.404315406,28.70201692,22.00321634,-1.729288882,-0.313876183,16.74988752
47:50.1,31.31540584,-18.61463265,1.207406206,15.40531362,21.74174277,-1.708295407,-0.308995014,16.53463577
47:50.1,33.33005785,-15.79411983,-0.001385003,15.80824402,21.49147335,-1.688483382,-0.304204008,16.33395234
47:50.1,26.88317141,-10.958955,2.013267011,14.19652241,21.24688071,-1.66929342,-0.299439503,16.14104101
47:50.1,22.45093698,-10.958955,5.236710235,42.40165062,20.93691318,-1.644479403,-0.293747759,15.88798277
47:50.1,41.38866591,-13.77946782,4.833779832,27.89615611,20.60159319,-1.617609235,-0.287657984,15.61405016
47:50.1,24.06265859,-15.79411983,-1.210176212,-14.8144666,20.09619457,-1.575552863,-0.279288441,15.17252988
47:50.1,41.38866591,-13.77946782,4.833779832,27.89615611,19.40844558,-1.517214446,-0.268476586,14.55133904
47:50.1,41.38866591,-13.77946782,4.833779832,27.89615611,18.64061388,-1.451817398,-0.256559513,13.85302177
47:50.1,41.38866591,-13.77946782,4.833779832,27.89615611,17.75743831,-1.376164155,-0.243078222,13.04186075
47:50.1,41.38866591,-13.77946782,4.833779832,27.89615611,16.93038456,-1.306753693,-0.230122127,12.31105976
47:50.1,41.38866591,-13.77946782,4.833779832,27.89615611,16.18513688,-1.245999531,-0.218012406,11.68836675
47:50.1,18.42163295,-17.40584145,-3.224828227,-5.144136931,15.41341492,-1.18363458,-0.205406495,11.05489489
47:50.1,18.01870254,-16.19705024,-1.210176212,17.01703523,14.66523627,-1.124463302,-0.192914838,10.46682871
47:50.1,27.28610181,-10.5560246,2.013267011,26.2844345,13.86212915,-1.060814989,-0.17959829,9.833279095
47:50.1,30.91247544,-10.5560246,3.22205822,18.62875684,12.99532638,-0.99186891,-0.16534621,9.144835254
47:50.2,18.01870254,-13.37653742,0.4015454,11.37600959,12.14812932,-0.925697588,-0.151165062,8.496530014
47:50.2,11.9747465,-12.16774621,2.013267011,6.540844754,11.30438311,-0.860731414,-0.136859769,7.869846654
47:50.2,30.50954503,-10.5560246,4.430849429,17.01703523,10.29794573,-0.78127116,-0.120362507,7.083485702
47:50.2,19.22749375,-10.5560246,2.819127817,16.61410483,9.12548464,-0.687034169,-0.101626635,6.134471222
47:50.2,7.945442469,-12.16774621,-0.404315406,7.34670556,7.856293532,-0.584548758,-0.081516876,5.098015561
47:50.2,13.18353771,-10.958955,-0.001385003,21.04633926,6.448219171,-0.469846155,-0.059506152,3.928414207
47:50.2,-3.739539216,-10.5560246,1.610336608,18.22582644,5.019247147,-0.354147129,-0.037051598,2.755892491
47:50.2,0.289764814,-14.18239822,-3.62775863,5.332053546,3.576780412,-0.238162856,-0.014243201,1.58876579
47:50.2,28.49489302,-11.3618854,-2.418967421,-5.144136931,2.026718102,-0.112987561,0.010088353,0.324061045
47:50.2,24.46558899,-10.958955,2.013267011,-22.47014426,0.394780106,0.018922329,0.035627279,-1.009621925
47:50.2,-4.545400021,-14.58532863,-0.001385003,-1.114832901,-0.918261369,0.123106477,0.054660566,-2.032115124
47:50.2,6.736651261,-10.958955,2.416197414,19.03168725,-1.882562254,0.1970843,0.066538328,-2.716501553
47:50.2,18.82456335,-4.914998955,4.833779832,21.44926966,-2.667948512,0.255279448,0.074652955,-3.220768405
47:50.2,30.10661463,-3.303277343,5.639640638,24.26978248,-3.161185447,0.287974575,0.076803139,-3.43778366
47:50.2,11.9747465,-5.317929358,6.042571041,20.64340886,-3.615415117,0.317124858,0.077701161,-3.610789916
47:50.2,18.82456335,-4.914998955,2.013267011,11.37600959,-4.038415667,0.343383178,0.077499053,-3.746837991
47:50.2,43.80624833,-5.72085976,-0.001385003,2.914471128,-4.201032219,0.346970129,0.071839354,-3.627242692
47:50.2,26.88317141,-1.288625328,1.207406206,11.77893999,-4.149970794,0.331938744,0.061581896,-3.296874474
47:50.2,10.76595529,2.337748298,1.610336608,19.83754805,-4.139748487,0.319871848,0.051851786,-2.992022125
47:50.2,1.09562562,-9.347233387,-4.433619436,7.34670556,-4.159227005,0.309779826,0.042450649,-2.701529956
47:50.2,-6.157121633,-6.526720566,-2.418967421,11.77893999,-4.111975534,0.29354077,0.031379943,-2.336728355
47:50.2,-2.530748007,-9.75016379,-4.433619436,0.496888711,-4.055316221,0.275999775,0.019799167,-1.950526652
47:50.2,-2.530748007,-9.75016379,-4.433619436,0.496888711,-3.771135099,0.238549782,0.003386331,-1.338458632
47:50.2,-2.530748007,-9.75016379,-4.433619436,0.496888711,-3.242090172,0.179713228,-0.01821232,-0.484248353
47:50.2,-2.530748007,-9.75016379,-4.433619436,0.496888711,-2.619862955,0.112385897,-0.041972361,0.470746431
47:50.2,-2.530748007,-9.75016379,-4.433619436,0.496888711,-1.851580041,0.03205168,-0.068944241,1.576225342
47:50.2,-2.530748007,-9.75016379,-4.433619436,0.496888711,-1.244821631,-0.034518815,-0.093439973,2.534842987
47:50.2,17.61577214,-8.944302984,-5.239480241,20.24047845,-0.842876609,-0.0835934,-0.114640398,3.305403059
47:50.2,22.04800657,-5.317929358,-3.224828227,15.00238322,-0.459754453,-0.131299181,-0.136043213,4.066744041
47:50.2,-3.739539216,-6.123790163,-2.821897824,23.86685208,-0.184916442,-0.169859841,-0.15599275,4.73258923
47:50.2,-0.113165589,-8.138442178,-4.030689033,16.21117443,0.12822719,-0.212105528,-0.177160613,5.445954383
47:50.2,10.36302489,-8.944302984,-4.433619436,-3.935345722,0.493965268,-0.259277548,-0.199821757,6.22066514
47:50.2,4.721999246,-7.735511775,-2.821897824,6.943775157,0.759807812,-0.298079874,-0.221177796,6.908919735
47:50.2,11.5718161,-7.735511775,-0.807245809,6.137914352,0.955245906,-0.33109605,-0.241771358,7.539570785
47:50.2,32.92712745,-6.526720566,1.610336608,8.152566366,1.362937655,-0.382804975,-0.266937229,8.383872238
47:50.2,12.78060731,-7.332581372,3.624988623,0.496888711,1.98664516,-0.453524215,-0.296761047,9.445343051
47:50.2,-10.58935606,-13.37653742,-0.001385003,13.3906616,2.709137582,-0.533123048,-0.329026474,10.61192645
47:50.2,5.930790455,-8.944302984,3.22205822,27.0902953,3.601202567,-0.627730761,-0.365076845,11.95157307
47:50.2,4.721999246,-6.929650969,3.624988623,-15.62032741,4.457972226,-0.719582804,-0.401077003,13.26738232
47:50.2,-7.768843245,-9.75016379,-2.418967421,-16.02325781,5.265993938,-0.807516935,-0.436780073,14.54654496
47:50.2,-6.962982439,-7.735511775,-0.001385003,9.764287978,6.185974438,-0.905461525,-0.475215023,15.94349025
47:50.3,,,,,7.172525598,-1.009482186,-0.515537959,17.41465704
47:50.3,-4.142469618,-5.72085976,2.416197414,3.720331934,7.768055221,-1.075518136,-0.543225378,18.39169865
47:50.3,-2.127817604,-6.526720566,-0.404315406,2.108610322,7.94407357,-1.100646947,-0.557140035,18.8340345
47:50.3,-2.530748007,-8.541372581,-1.613106615,6.540844754,7.882761022,-1.102715347,-0.563487223,18.97693365
47:50.3,9.960094484,-4.109138149,-1.210176212,9.361357575,7.456070833,-1.069343164,-0.558140971,18.65990939
47:50.3,16.40698093,-4.512068552,-3.62775863,25.07564329,6.965300332,-1.029163881,-0.550164841,18.24618169
47:50.3,9.154233678,-4.109138149,-1.210176212,19.83754805,6.418267178,-0.982939742,-0.539828313,17.74578811
47:50.3,1.09562562,-1.288625328,-0.001385003,-2.726554513,5.548408536,-0.905131945,-0.518849624,16.8314315
47:50.3,7.139581664,-8.541372581,-2.016037018,-3.532415319,4.411440041,-0.801015419,-0.48888468,15.56973374
47:50.3,2.304416828,-12.97360701,-0.807245809,15.00238322,3.277974744,-0.697206872,-0.459274141,14.31317498
47:50.3,-13.00693848,-8.138442178,2.819127817,24.67271289,2.133169691,-0.592319883,-0.429611285,13.04461098
47:50.3,15.19818972,-4.109138149,3.22205822,-2.32362411,0.878098217,-0.476484638,-0.396305812,11.63117249
47:50.3,16.00405053,-5.317929358,6.445501444,12.9877312,-0.427354174,-0.355609402,-0.361454628,10.15142344
47:50.3,16.00405053,-5.317929358,6.445501444,12.9877312,-2.022459093,-0.20635304,-0.317070384,8.299420005
47:50.3,16.00405053,-5.317929358,6.445501444,12.9877312,-3.926145445,-0.026848112,-0.26250023,6.050388792
47:50.3,16.00405053,-5.317929358,6.445501444,12.9877312,-5.974962703,0.166904281,-0.203288138,3.615043363
47:50.3,16.00405053,-5.317929358,6.445501444,12.9877312,-8.227299725,0.380603085,-0.137486541,0.918668366
47:50.3,16.00405053,-5.317929358,6.445501444,12.9877312,-10.3116339,0.579006784,-0.07612548,-1.593116936
47:50.4,-0.113165589,-2.094486134,0.4015454,1.302749516,-12.17800931,0.757332037,-0.020755891,-3.859041731
47:50.4,-7.365912842,-4.109138149,1.207406206,6.137914352,-14.04723578,0.936650733,0.035341785,-6.14761944
